x (nm),y (nm),zpen (mm),Force (N),zafm (nm)
12.664,-47.086,24.264,-0.014,2.471
12.579,-47.073,24.423,-0.018,2.468
12.509,-47.064,24.47,-0.009,2.467
12.426,-47.055,24.481,-0.003,2.469
12.319,-47.042,24.438,0.004,2.469
12.251,-47.037,24.42,0.001,2.469
12.133,-47.03,24.414,0,2.467
12.056,-47.026,24.398,0.001,2.47
11.991,-47.024,24.394,-0.001,2.47
11.891,-47.024,24.411,-0.003,2.469
11.8,-47.029,24.447,-0.005,2.47
11.745,-47.035,24.501,-0.01,2.47
11.692,-47.042,24.597,-0.01,2.472
11.639,-47.048,24.693,-0.008,2.466
11.579,-47.054,24.796,-0.005,2.469
11.564,-47.055,24.806,-0.003,2.467
11.527,-47.055,24.821,0.003,2.469
11.498,-47.053,24.803,0.005,2.47
11.46,-47.054,24.717,0.006,2.47
11.443,-47.055,24.634,0.01,2.466
11.427,-47.057,24.493,0.013,2.472
11.421,-47.056,24.336,0.005,2.469
11.421,-47.055,24.33,0,2.468
11.424,-47.055,24.31,0.004,2.47
11.429,-47.052,24.244,0.005,2.47
11.429,-47.052,24.222,0.003,2.468
11.425,-47.054,24.24,-0.003,2.471
11.414,-47.059,24.294,-0.004,2.471
11.409,-47.061,24.34,-0.005,2.469
11.412,-47.061,24.356,-0.003,2.472
11.417,-47.059,24.374,-0.001,2.47
11.421,-47.053,24.375,-0.003,2.466
11.418,-47.048,24.439,-0.008,2.47
11.41,-47.04,24.525,-0.005,2.467
11.403,-47.031,24.493,0.003,2.469
11.403,-47.03,24.495,0,2.469
11.404,-47.028,24.518,-0.003,2.471
11.403,-47.027,24.59,-0.007,2.469
11.39,-47.028,24.828,-0.016,2.47
11.381,-47.025,24.965,-0.013,2.468
11.376,-47.02,25.069,-0.009,2.47
11.365,-47.016,25.142,-0.002,2.468
11.34,-47.011,25.221,-0.007,2.469
11.3,-46.988,25.403,-0.015,2.471
11.278,-46.974,25.521,-0.011,2.47
11.236,-46.957,25.722,-0.013,2.468
11.169,-46.946,26.015,-0.013,2.47
11.138,-46.945,26.087,-0.004,2.471
11.111,-46.941,26.078,0.005,2.469
11.09,-46.936,26.044,0.001,2.468
11.055,-46.926,26.053,0,2.468
11.038,-46.923,26.045,0,2.469
11.021,-46.919,26.045,0,2.472
10.994,-46.914,26.038,0.006,2.471
10.967,-46.902,25.973,0.009,2.469
10.951,-46.893,25.875,0.012,2.47
10.933,-46.882,25.775,0.01,2.469
10.917,-46.875,25.715,0.003,2.47
10.903,-46.875,25.712,-0.001,2.469
10.892,-46.881,25.724,0.001,2.468
10.889,-46.885,25.703,0.002,2.47
10.889,-46.889,25.678,0.002,2.47
10.889,-46.894,25.729,-0.008,2.469
10.887,-46.899,25.821,-0.004,2.469
10.885,-46.899,25.835,0,2.47
10.879,-46.898,25.827,0,2.468
10.863,-46.908,25.883,-0.006,2.47
10.86,-46.916,25.972,-0.009,2.468
10.859,-46.922,26.03,-0.006,2.469
10.858,-46.929,26.093,-0.004,2.468
10.857,-46.932,26.118,-0.002,2.472
10.857,-46.933,26.138,0,2.47
10.859,-46.927,26.13,0.002,2.468
10.862,-46.919,26.048,0.009,2.469
10.868,-46.915,25.983,0.008,2.471
10.886,-46.92,25.968,-0.004,2.472
10.893,-46.929,26.017,-0.006,2.468
10.892,-46.937,26.079,-0.01,2.467
10.888,-46.951,26.198,-0.008,2.47
10.885,-46.963,26.277,-0.003,2.467
10.883,-46.966,26.295,0,2.469
10.88,-46.969,26.256,0.003,2.47
10.876,-46.972,26.209,0.005,2.472
10.874,-46.974,26.148,0.005,2.47
10.873,-46.98,26.128,0.003,2.47
10.872,-46.982,26.119,0.003,2.47
10.873,-46.979,26.086,0.005,2.466
10.877,-46.967,26,0.006,2.47
10.877,-46.953,25.916,0.001,2.471
10.872,-46.939,25.851,0.006,2.47
10.862,-46.926,25.757,0.006,2.47
10.857,-46.921,25.726,0.003,2.471
10.855,-46.912,25.678,0.005,2.471
10.854,-46.905,25.629,0.005,2.468
10.845,-46.899,25.598,0,2.469
10.833,-46.891,25.575,0.004,2.471
10.827,-46.877,25.484,0.008,2.472
10.823,-46.862,25.394,0.01,2.471
10.811,-46.841,25.31,0.009,2.47
10.8,-46.83,25.291,0,2.469
10.788,-46.815,25.228,0.006,2.469
10.784,-46.811,25.21,0.006,2.468
10.778,-46.8,25.13,0.003,2.467
10.776,-46.801,25.142,-0.002,2.47
10.776,-46.805,25.166,0,2.468
10.776,-46.803,25.168,-0.002,2.47
10.751,-46.801,25.233,-0.009,2.471
10.712,-46.808,25.338,-0.001,2.469
10.69,-46.806,25.327,0.001,2.468
10.676,-46.803,25.312,0.001,2.471
10.664,-46.801,25.31,-0.001,2.469
10.649,-46.803,25.344,-0.004,2.469
10.633,-46.808,25.411,-0.004,2.471
10.625,-46.807,25.417,0,2.471
10.616,-46.805,25.41,0.001,2.47
10.608,-46.801,25.37,0.004,2.469
10.604,-46.798,25.336,0.001,2.473
10.598,-46.797,25.328,0.004,2.468
10.589,-46.796,25.305,0.004,2.47
10.568,-46.799,25.196,0.008,2.469
10.55,-46.803,25.079,0.009,2.469
10.536,-46.805,25.015,-0.003,2.471
10.535,-46.805,25.015,0,2.469
10.533,-46.805,25.021,-0.001,2.468
10.528,-46.809,25.063,-0.005,2.472
10.514,-46.818,25.155,-0.006,2.469
10.509,-46.819,25.173,-0.006,2.468
10.491,-46.822,25.212,-0.001,2.47
10.478,-46.823,25.157,0,2.47
10.475,-46.824,25.134,0.002,2.469
10.475,-46.824,25.126,0,2.469
10.474,-46.824,25.126,0,2.471
10.471,-46.824,25.118,0.001,2.469
10.467,-46.824,25.095,0.002,2.47
10.461,-46.827,25.054,0.004,2.471
10.457,-46.829,25.014,0.003,2.469
10.453,-46.831,24.975,0.006,2.469
10.45,-46.833,24.944,0.006,2.468
10.439,-46.835,24.865,0.004,2.47
10.433,-46.838,24.802,0.006,2.469
10.43,-46.84,24.748,0.005,2.468
10.429,-46.842,24.725,0.001,2.472
10.43,-46.841,24.718,0,2.469
10.43,-46.841,24.718,0,2.469
10.43,-46.841,24.718,0,2.471
10.429,-46.842,24.725,-0.003,2.471
10.428,-46.842,24.717,0.001,2.468
10.428,-46.843,24.701,0.001,2.468
10.426,-46.844,24.685,0.001,2.471
10.427,-46.843,24.679,0.001,2.468
10.425,-46.843,24.679,0,2.47
10.424,-46.843,24.679,0,2.468
10.421,-46.843,24.663,0.002,2.47
10.414,-46.843,24.632,0.003,2.47
10.407,-46.843,24.6,0.005,2.47
10.395,-46.845,24.565,0.006,2.47
10.361,-46.849,24.396,0.011,2.47
10.343,-46.852,24.285,0.01,2.469
10.334,-46.853,24.229,0.007,2.469
10.32,-46.855,24.149,0.006,2.469
10.307,-46.859,24.059,0.008,2.469
10.299,-46.862,23.987,0.007,2.468
10.289,-46.865,23.921,0.003,2.47
10.281,-46.868,23.921,-0.002,2.472
10.278,-46.869,23.911,0.002,2.47
10.274,-46.869,23.887,0.001,2.469
10.264,-46.869,23.839,0.002,2.468
10.26,-46.869,23.817,0.004,2.47
10.255,-46.867,23.795,0.003,2.47
10.247,-46.865,23.75,0.006,2.468
10.237,-46.864,23.676,0.007,2.469
10.23,-46.862,23.516,0.014,2.468
10.228,-46.857,23.262,0.011,2.471
10.226,-46.858,23.201,0.005,2.47
10.224,-46.859,23.185,0,2.469
10.224,-46.86,23.169,0.002,2.467
10.223,-46.862,23.144,0.003,2.468
10.223,-46.863,23.12,0.001,2.469
10.221,-46.866,23.108,0.002,2.468
10.219,-46.871,23.144,-0.002,2.471
10.217,-46.874,23.174,-0.004,2.471
10.214,-46.878,23.205,-0.005,2.468
10.205,-46.883,23.265,-0.004,2.47
10.199,-46.883,23.283,-0.002,2.467
10.183,-46.883,23.32,-0.004,2.468
10.168,-46.886,23.352,-0.004,2.467
10.158,-46.889,23.359,0,2.47
10.141,-46.896,23.42,-0.004,2.469
10.136,-46.9,23.457,-0.001,2.471
10.134,-46.9,23.463,0,2.471
10.134,-46.9,23.463,0,2.47
10.135,-46.899,23.45,0.002,2.47
10.136,-46.896,23.432,0.002,2.469
10.137,-46.894,23.414,0.003,2.467
10.137,-46.894,23.414,0,2.47
10.139,-46.895,23.414,0,2.469
10.14,-46.896,23.414,0,2.469
10.141,-46.896,23.414,0,2.469
10.142,-46.894,23.41,0.002,2.47
10.143,-46.891,23.385,0.002,2.468
10.144,-46.891,23.371,0.003,2.47
10.144,-46.891,23.357,0,2.469
10.147,-46.889,23.324,0.004,2.469
10.154,-46.884,23.224,0.007,2.471
10.159,-46.882,23.149,0.004,2.469
10.159,-46.882,23.121,0.001,2.468
10.159,-46.883,23.113,0,2.467
10.159,-46.883,23.113,0,2.47
10.159,-46.882,23.099,0.001,2.472
10.159,-46.881,23.064,0.002,2.47
10.159,-46.882,23.042,0.001,2.469
10.159,-46.883,23.025,0,2.469
10.158,-46.884,23.023,0,2.469
10.157,-46.887,22.974,0.002,2.467
10.158,-46.888,22.952,0,2.469
10.16,-46.889,22.93,0.004,2.468
10.161,-46.89,22.921,0.001,2.467
10.161,-46.891,22.891,0.003,2.471
10.163,-46.891,22.826,0.008,2.469
10.166,-46.89,22.655,0.014,2.47
10.168,-46.889,22.505,0.013,2.47
10.169,-46.888,22.412,0.01,2.47
10.17,-46.886,22.312,0.012,2.471
10.17,-46.885,22.205,0.014,2.469
10.171,-46.886,22.081,0.01,2.468
10.172,-46.889,22.011,0.005,2.467
10.172,-46.89,21.98,0.003,2.469
10.172,-46.89,21.915,0.008,2.467
10.172,-46.89,21.842,0.006,2.47
10.173,-46.889,21.777,0.007,2.469
10.172,-46.891,21.724,0.004,2.47
10.172,-46.892,21.693,0.002,2.469
10.172,-46.892,21.662,0.003,2.469
10.171,-46.893,21.618,0.007,2.469
10.171,-46.893,21.552,0.007,2.47
10.172,-46.892,21.487,0.009,2.47
10.171,-46.893,21.392,0.011,2.468
10.171,-46.893,21.259,0.011,2.469
10.17,-46.893,21.186,0.005,2.467
10.169,-46.894,21.127,0.002,2.468
10.168,-46.894,21.082,0.004,2.47
10.169,-46.892,21.019,0.008,2.469
10.169,-46.892,20.858,0.015,2.469
10.166,-46.894,20.641,0.012,2.469
10.165,-46.896,20.534,0.009,2.471
10.164,-46.898,20.495,0.001,2.47
10.164,-46.898,20.472,0.003,2.47
10.165,-46.896,20.418,0.007,2.468
10.166,-46.896,20.376,0.005,2.468
10.165,-46.898,20.32,0.001,2.47
10.165,-46.898,20.306,0.001,2.469
10.165,-46.897,20.263,0.005,2.472
10.165,-46.896,20.155,0.011,2.468
10.164,-46.896,20.023,0.014,2.47
10.162,-46.896,19.881,0.015,2.469
10.161,-46.897,19.638,0.016,2.47
10.16,-46.898,19.437,0.016,2.47
10.16,-46.899,19.347,0.011,2.467
10.159,-46.901,19.256,0.008,2.469
10.157,-46.9,19.117,0.011,2.471
10.152,-46.899,18.911,0.015,2.471
10.149,-46.902,18.704,0.016,2.469
10.146,-46.905,18.556,0.012,2.47
10.144,-46.905,18.451,0.012,2.469
10.144,-46.907,18.315,0.003,2.468
10.143,-46.911,18.315,-0.003,2.469
10.142,-46.913,18.294,0.003,2.467
10.142,-46.913,18.286,0.002,2.466
10.141,-46.914,18.269,0,2.469
10.141,-46.916,18.266,0,2.467
10.14,-46.915,18.266,0,2.47
10.137,-46.915,18.266,0,2.472
10.135,-46.915,18.249,0.004,2.466
10.134,-46.915,18.249,0,2.47
10.135,-46.915,18.249,0,2.467
10.135,-46.915,18.249,0,2.469
10.135,-46.915,18.249,0,2.467
10.134,-46.915,18.249,0,2.469
10.134,-46.915,18.249,0,2.468
10.134,-46.915,18.249,0,2.471
10.134,-46.915,18.24,0,2.47
10.134,-46.917,18.214,0.001,2.47
10.135,-46.917,18.214,0,2.469
10.137,-46.917,18.217,0,2.47
10.137,-46.917,18.217,0,2.47
10.137,-46.917,18.217,0,2.469
10.137,-46.916,18.226,0,2.468
10.137,-46.916,18.226,0,2.47
10.138,-46.916,18.226,0,2.468
10.137,-46.919,18.243,-0.001,2.468
10.137,-46.919,18.243,0,2.468
10.137,-46.919,18.248,-0.001,2.469
10.137,-46.919,18.248,0,2.467
10.138,-46.919,18.243,0.003,2.47
10.138,-46.919,18.243,0,2.471
10.139,-46.92,18.248,0,2.469
10.14,-46.92,18.248,0,2.472
10.14,-46.92,18.248,0,2.469
10.14,-46.92,18.243,0,2.465
10.14,-46.92,18.243,0,2.468
10.14,-46.92,18.243,0,2.466
10.14,-46.92,18.243,0,2.468
10.14,-46.92,18.243,0,2.47
10.14,-46.92,18.234,0,2.47
10.14,-46.92,18.234,0,2.47
10.141,-46.921,18.234,0,2.471
10.141,-46.921,18.234,0,2.472
10.141,-46.921,18.226,0.002,2.47
10.141,-46.921,18.226,0,2.468
10.141,-46.921,18.234,-0.002,2.47
10.141,-46.921,18.234,0,2.467
10.141,-46.921,18.234,0,2.466
10.141,-46.921,18.234,0,2.467
10.141,-46.921,18.234,0,2.465
10.141,-46.92,18.214,0,2.469
10.142,-46.919,18.209,0,2.469
10.142,-46.918,18.203,0,2.472
10.142,-46.916,18.192,0.001,2.471
10.143,-46.912,18.164,0.002,2.47
10.145,-46.908,18.122,0.005,2.47
10.146,-46.905,18.062,0.004,2.469
10.146,-46.904,18.029,0.003,2.467
10.147,-46.902,17.966,0.006,2.467
10.147,-46.901,17.924,0.002,2.467
10.147,-46.901,17.882,0.005,2.469
10.147,-46.901,17.845,0.004,2.468
10.148,-46.898,17.814,0.001,2.471
10.149,-46.896,17.774,0.005,2.471
10.149,-46.895,17.732,0.007,2.473
10.149,-46.895,17.644,0.01,2.469
10.149,-46.896,17.511,0.006,2.469
10.149,-46.896,17.474,0.009,2.467
10.149,-46.896,17.414,0.006,2.468
10.15,-46.894,17.31,0.006,2.468
10.15,-46.892,17.239,0.007,2.469
10.152,-46.888,17.138,0.008,2.469
10.152,-46.886,17.048,0.009,2.469
10.152,-46.885,16.706,0.013,2.47
10.151,-46.885,16.601,0.013,2.468
10.151,-46.884,16.434,0.017,2.47
10.152,-46.881,16.154,0.025,2.468
10.153,-46.88,15.914,0.028,2.47
10.153,-46.878,15.645,0.033,2.47
10.152,-46.878,15.285,0.032,2.47
10.153,-46.871,14.676,0.04,2.467
10.152,-46.869,14.288,0.042,2.47
10.154,-46.865,13.562,0.053,2.47
10.155,-46.864,12.87,0.048,2.469
10.154,-46.865,12.257,0.05,2.47
10.151,-46.868,11.473,0.067,2.47
10.149,-46.87,10.818,0.072,2.469
10.146,-46.873,10.156,0.074,2.467
10.137,-46.882,8.867,0.071,2.471
10.131,-46.89,8.015,0.07,2.468
10.127,-46.894,7.46,0.069,2.469
10.123,-46.899,6.945,0.063,2.471
10.112,-46.904,6.026,0.063,2.47
10.092,-46.905,4.676,0.085,2.472
10.075,-46.91,3.677,0.076,2.468
10.065,-46.912,3.018,0.072,2.469
10.047,-46.914,1.862,0.076,2.468
10.035,-46.914,0.525,0.194,2.466
10.029,-46.915,0.017,0.338,2.47
10.019,-46.918,-0.127,0.346,2.472
10.013,-46.921,-0.093,0.333,2.468
10.013,-46.922,-0.161,0.37,2.471
10.016,-46.921,-0.317,0.43,2.47
10.02,-46.917,-0.522,0.504,2.469
10.022,-46.917,-0.807,0.608,2.468
10.018,-46.923,-1.044,0.69,2.468
10.015,-46.93,-1.244,0.759,2.47
10.016,-46.934,-1.693,0.921,2.469
10.025,-46.925,-2.172,1.099,2.47
10.042,-46.909,-3.113,1.468,2.47
10.046,-46.903,-3.774,1.7,2.468
10.035,-46.902,-4.349,1.88,2.471
10.012,-46.9,-4.945,2.063,2.468
10.016,-46.898,-5.504,2.28,2.468
10.018,-46.897,-5.729,2.364,2.47
10.019,-46.894,-6.34,2.58,2.469
10.016,-46.895,-6.721,2.71,2.47
10.002,-46.897,-7.343,2.911,2.467
9.997,-46.894,-7.676,3.02,2.471
10.006,-46.875,-8.702,3.394,2.469
9.998,-46.872,-9.042,3.494,2.468
9.986,-46.874,-9.278,3.575,2.469
9.98,-46.877,-9.625,3.707,2.467
9.989,-46.863,-9.898,3.774,2.469
9.992,-46.856,-9.962,3.796,2.471
9.993,-46.854,-10.055,3.835,2.466
9.991,-46.85,-10.161,3.866,2.471
9.991,-46.849,-10.08,3.82,2.471
9.994,-46.848,-9.819,3.708,2.468
9.999,-46.853,-9.348,3.517,2.468
10.011,-46.849,-7.435,2.72,2.468
10.017,-46.861,-4.26,1.53,2.468
10.016,-46.895,-1.572,0.621,2.468
10.017,-46.952,1.116,-0.109,2.467
9.989,-47.018,2.811,-0.126,2.47
9.935,-47.087,5.632,-0.238,2.469
9.909,-47.125,8.122,-0.273,2.47
9.896,-47.154,10.635,-0.274,2.471
9.892,-47.174,12.679,-0.247,2.469
9.893,-47.196,14.754,-0.191,2.47
9.905,-47.217,16.706,-0.123,2.469
9.912,-47.226,17.592,-0.08,2.469
9.914,-47.23,18.009,-0.045,2.469
9.913,-47.236,18.207,-0.024,2.468
9.908,-47.248,18.475,-0.027,2.467
9.902,-47.263,18.884,-0.034,2.469
9.898,-47.279,19.257,-0.035,2.467
9.894,-47.294,19.523,-0.027,2.471
9.893,-47.304,19.668,-0.019,2.468
9.895,-47.325,19.874,-0.014,2.469
9.895,-47.333,19.946,-0.019,2.469
9.894,-47.35,20.059,-0.016,2.468
9.893,-47.369,20.206,-0.014,2.471
9.893,-47.393,20.378,-0.018,2.47
9.896,-47.425,20.612,-0.017,2.47
9.905,-47.445,20.742,-0.015,2.469
9.918,-47.47,20.9,-0.018,2.469
9.927,-47.487,21.006,-0.017,2.468
9.942,-47.507,21.196,-0.023,2.468
9.959,-47.53,21.48,-0.026,2.469
9.964,-47.556,21.931,-0.027,2.47
9.954,-47.585,22.268,-0.026,2.468
9.95,-47.596,22.37,-0.026,2.468
9.94,-47.617,22.601,-0.028,2.469
9.924,-47.657,23.033,-0.027,2.47
9.913,-47.687,23.336,-0.025,2.469
9.904,-47.716,23.565,-0.017,2.471
9.899,-47.747,23.712,-0.011,2.469
9.898,-47.771,23.781,-0.01,2.467
9.905,-47.806,23.806,-0.006,2.469
9.919,-47.864,23.925,-0.017,2.468
9.929,-47.917,24.149,-0.031,2.468
9.935,-47.965,24.371,-0.026,2.471
9.943,-48.021,24.619,-0.02,2.469
9.95,-48.08,24.873,-0.03,2.467
9.954,-48.131,25.084,-0.019,2.469
9.957,-48.189,25.384,-0.027,2.471
9.954,-48.225,25.439,0.002,2.47
9.948,-48.259,25.372,0.021,2.466
9.94,-48.289,25.245,0.015,2.471
9.932,-48.315,25.052,0.018,2.47
9.927,-48.337,24.88,0.021,2.47
9.922,-48.37,24.67,0.014,2.469
9.923,-48.419,24.611,-0.005,2.469
9.927,-48.454,24.54,0.013,2.471
9.934,-48.487,24.463,0.007,2.47
9.945,-48.537,24.174,0.019,2.468
9.947,-48.597,23.93,0.023,2.468
9.94,-48.632,23.8,0.027,2.471
9.923,-48.694,23.669,0.005,2.468
9.91,-48.737,23.434,0.033,2.469
9.895,-48.79,23.103,0.024,2.471
9.881,-48.847,22.498,0.038,2.471
9.872,-48.887,22.15,0.034,2.471
9.869,-48.906,21.986,0.037,2.468
9.857,-48.962,21.491,0.035,2.468
9.851,-49.001,21.211,0.028,2.469
9.843,-49.071,20.775,0.033,2.469
9.844,-49.112,20.5,0.033,2.47
9.848,-49.165,20.159,0.025,2.47
9.852,-49.198,19.942,0.027,2.469
9.863,-49.243,19.468,0.034,2.472
9.875,-49.267,19.044,0.034,2.469
9.893,-49.288,18.72,0.023,2.47
9.912,-49.302,18.465,0.021,2.468
9.924,-49.311,18.205,0.024,2.47
9.93,-49.324,17.78,0.029,2.469
9.927,-49.337,17.245,0.04,2.471
9.927,-49.351,16.86,0.029,2.47
9.93,-49.371,16.389,0.031,2.47
9.938,-49.38,16.202,0.015,2.469
9.954,-49.389,15.949,0.009,2.469
9.965,-49.4,15.789,0.011,2.469
9.978,-49.409,15.652,0.01,2.471
9.988,-49.412,15.495,0.018,2.467
9.995,-49.416,15.287,0.023,2.47
10,-49.42,14.979,0.032,2.469
10.008,-49.428,14.625,0.028,2.471
10.014,-49.433,14.482,0.009,2.469
10.016,-49.434,14.381,0.006,2.469
10.015,-49.439,14.195,0.009,2.469
10.015,-49.44,14.105,0.01,2.47
10.014,-49.444,13.94,0.013,2.469
10.015,-49.456,13.767,0.008,2.47
10.017,-49.462,13.678,0.013,2.468
10.017,-49.475,13.573,0.007,2.471
10.015,-49.483,13.416,0.013,2.471
10.013,-49.489,13.285,0.011,2.47
10.013,-49.493,13.217,0.001,2.469
10.016,-49.496,13.223,-0.001,2.47
10.016,-49.499,13.256,-0.006,2.47
10.01,-49.507,13.334,-0.007,2.468
9.998,-49.526,13.278,0.007,2.469
9.998,-49.538,13.263,0,2.469
9.998,-49.544,13.269,-0.002,2.469
10.003,-49.565,13.299,0.001,2.47
10.011,-49.595,13.3,-0.001,2.47
10.013,-49.612,13.266,0.003,2.471
10.016,-49.642,13.215,0.001,2.469
10.013,-49.662,13.182,0.007,2.47
10.016,-49.671,13.014,0.018,2.47
10.013,-49.683,12.705,0.012,2.469
10.01,-49.69,12.62,0.009,2.468
10.006,-49.699,12.557,0.006,2.468
10.002,-49.717,12.456,0.005,2.47
10.004,-49.732,12.304,0.011,2.467
10.013,-49.739,12.193,0.002,2.471
10.021,-49.737,12.151,0.004,2.47
10.023,-49.73,12.086,0.006,2.471
10.023,-49.725,11.996,0.006,2.47
10.024,-49.719,11.909,0.01,2.471
10.025,-49.713,11.864,-0.001,2.471
10.026,-49.71,11.838,0.002,2.468
10.028,-49.702,11.737,0.008,2.47
10.03,-49.695,11.673,0.001,2.469
10.029,-49.695,11.673,0,2.47
10.028,-49.694,11.673,0,2.468
10.023,-49.69,11.659,0.005,2.472
10.022,-49.686,11.617,0.005,2.471
10.024,-49.675,11.483,0.006,2.469
10.026,-49.667,11.411,0.002,2.469
10.027,-49.667,11.403,0,2.472
10.027,-49.666,11.414,0,2.47
10.031,-49.658,11.314,0.007,2.469
10.032,-49.648,11.206,0.007,2.47
10.034,-49.646,11.153,0.004,2.47
10.033,-49.648,11.187,-0.004,2.47
10.033,-49.649,11.214,-0.001,2.471
10.033,-49.649,11.214,0,2.469
10.033,-49.648,11.178,0.006,2.469
10.033,-49.648,11.178,0,2.469
10.033,-49.648,11.178,0,2.47
10.033,-49.648,11.187,-0.001,2.469
10.031,-49.651,11.189,-0.003,2.468
10.027,-49.657,11.234,-0.009,2.47
10.018,-49.669,11.372,-0.006,2.471
10.019,-49.67,11.369,0.003,2.469
10.019,-49.672,11.305,0.006,2.47
10.019,-49.675,11.269,0.002,2.471
10.018,-49.682,11.202,0.005,2.471
10.017,-49.686,11.111,0.009,2.469
10.016,-49.688,11.055,0.006,2.472
10.016,-49.688,11.055,0,2.469
10.016,-49.688,11.046,0,2.469
10.016,-49.688,11.016,0.005,2.47
10.015,-49.69,10.96,0.01,2.47
10.012,-49.699,10.706,0.011,2.472
10.01,-49.7,10.6,0.008,2.47
10.009,-49.7,10.55,0.001,2.471
10.008,-49.7,10.539,0,2.47
10.008,-49.701,10.527,0,2.468
10.007,-49.701,10.516,0.001,2.467
10.006,-49.702,10.502,0.002,2.469
10.006,-49.704,10.488,0.001,2.47
10.005,-49.704,10.488,0,2.47
10.004,-49.704,10.477,0.001,2.471
10.002,-49.704,10.454,0.006,2.471
9.999,-49.705,10.421,0.003,2.471
9.997,-49.706,10.376,0,2.472
9.996,-49.707,10.365,0,2.469
9.997,-49.707,10.365,0,2.468
9.997,-49.707,10.354,0,2.468
9.996,-49.708,10.351,-0.001,2.467
9.996,-49.709,10.348,0,2.469
9.996,-49.711,10.314,0,2.47
9.996,-49.711,10.303,0,2.469
9.996,-49.711,10.303,0,2.472
9.996,-49.712,10.292,0.001,2.471
9.995,-49.713,10.269,0.001,2.469
9.994,-49.716,10.272,-0.003,2.47
9.994,-49.718,10.305,-0.004,2.472
9.994,-49.718,10.305,0.004,2.467
9.994,-49.719,10.294,0,2.469
9.992,-49.719,10.283,0.003,2.47
9.991,-49.719,10.272,0.001,2.469
9.991,-49.719,10.272,0,2.471
9.99,-49.718,10.263,0.001,2.47
9.991,-49.717,10.235,0.001,2.47
9.99,-49.718,10.202,0.001,2.471
9.987,-49.72,10.146,0.006,2.469
9.987,-49.72,10.134,0.003,2.47
9.985,-49.721,10.112,0.001,2.469
9.982,-49.721,10.078,0.004,2.47
9.98,-49.722,10.045,0.005,2.468
9.98,-49.722,10.045,0,2.468
9.98,-49.724,10,0.002,2.47
9.98,-49.724,9.969,0.002,2.47
9.98,-49.725,9.946,0.005,2.469
9.981,-49.726,9.955,0,2.47
9.98,-49.727,9.921,0.004,2.469
9.98,-49.727,9.921,0,2.468
9.98,-49.728,9.91,0.002,2.47
9.98,-49.729,9.918,0,2.47
9.98,-49.729,9.907,0.004,2.468
9.98,-49.729,9.896,0.004,2.47
9.979,-49.731,9.851,0.005,2.47
9.979,-49.733,9.794,0.004,2.468
9.978,-49.735,9.749,0.007,2.47
9.977,-49.74,9.656,0.004,2.471
9.977,-49.74,9.645,0.001,2.47
9.977,-49.74,9.634,0,2.469
9.977,-49.741,9.611,0.005,2.469
9.976,-49.742,9.589,0.002,2.47
9.977,-49.744,9.543,0.002,2.47
9.976,-49.746,9.518,0.003,2.47
9.976,-49.748,9.504,0.002,2.469
9.975,-49.749,9.478,0.003,2.47
9.973,-49.754,9.365,0.007,2.47
9.973,-49.756,9.309,0.006,2.47
9.973,-49.757,9.275,0.006,2.469
9.973,-49.757,9.255,0.004,2.469
9.972,-49.757,9.244,0,2.468
9.973,-49.758,9.244,0,2.468
9.973,-49.759,9.241,0,2.469
9.973,-49.759,9.23,0.001,2.471
9.973,-49.76,9.218,0,2.47
9.973,-49.76,9.207,0.003,2.47
9.973,-49.759,9.199,0.001,2.468
9.973,-49.76,9.187,0,2.47
9.973,-49.76,9.187,0,2.47
9.973,-49.759,9.179,0,2.469
9.973,-49.759,9.168,0,2.467
9.973,-49.76,9.145,0,2.47
9.972,-49.761,9.134,0,2.47
9.972,-49.761,9.123,0,2.47
9.972,-49.761,9.123,0,2.47
9.972,-49.761,9.123,0,2.468
9.972,-49.761,9.103,0.001,2.47
9.971,-49.76,9.103,0,2.469
9.971,-49.761,9.08,0.001,2.47
9.97,-49.762,9.038,0.004,2.468
9.969,-49.763,9.004,0.002,2.468
9.969,-49.763,9.004,0,2.469
9.968,-49.762,8.965,0.005,2.47
9.968,-49.761,8.956,0.001,2.469
9.968,-49.761,8.956,0,2.468
9.968,-49.762,8.945,0.003,2.47
9.968,-49.762,8.945,0,2.471
9.968,-49.762,8.934,0.001,2.47
9.968,-49.762,8.934,0,2.468
9.968,-49.763,8.923,0,2.471
9.967,-49.764,8.889,0.002,2.469
9.968,-49.763,8.88,0.001,2.47
9.967,-49.764,8.869,0,2.47
9.967,-49.764,8.869,0,2.468
9.967,-49.764,8.869,0,2.468
9.967,-49.764,8.869,0,2.468
9.968,-49.764,8.869,0,2.47
9.968,-49.763,8.849,0,2.469
9.968,-49.764,8.818,0.006,2.47
9.968,-49.764,8.787,0.006,2.469
9.968,-49.763,8.768,0.002,2.471
9.969,-49.762,8.732,0.008,2.469
9.969,-49.761,8.704,0.002,2.47
9.969,-49.762,8.681,0,2.469
9.969,-49.762,8.67,0.001,2.47
9.969,-49.762,8.658,0.005,2.472
9.968,-49.763,8.647,0.004,2.47
9.968,-49.764,8.624,0.005,2.467
9.967,-49.765,8.579,0.002,2.468
9.967,-49.765,8.517,0.007,2.471
9.968,-49.765,8.497,0.001,2.469
9.968,-49.765,8.497,0,2.471
9.967,-49.766,8.486,0.005,2.468
9.967,-49.765,8.466,0.005,2.469
9.967,-49.765,8.466,0,2.469
9.967,-49.765,8.435,0.001,2.47
9.967,-49.766,8.362,0.006,2.468
9.967,-49.767,8.351,0,2.472
9.967,-49.767,8.339,0,2.47
9.966,-49.768,8.336,0,2.468
9.966,-49.769,8.302,0.004,2.471
9.965,-49.771,8.257,0.007,2.467
9.965,-49.772,8.223,0.001,2.469
9.965,-49.773,8.211,0.001,2.47
9.965,-49.774,8.177,0.006,2.47
9.965,-49.774,8.166,0.001,2.47
9.964,-49.776,8.089,0.003,2.468
9.964,-49.777,8.066,0,2.47
9.964,-49.776,8.039,0.001,2.469
9.964,-49.776,7.999,0.004,2.471
9.964,-49.777,7.965,0.005,2.471
9.964,-49.778,7.931,0.005,2.471
9.964,-49.781,7.863,0.007,2.468
9.963,-49.783,7.786,0.008,2.47
9.963,-49.785,7.698,0.006,2.467
9.962,-49.786,7.664,0.004,2.47
9.962,-49.788,7.618,0.005,2.47
9.961,-49.789,7.572,0.005,2.469
9.961,-49.791,7.496,0.002,2.471
9.961,-49.792,7.473,0.003,2.468
9.961,-49.794,7.427,0.006,2.47
9.96,-49.796,7.37,0.003,2.47
9.96,-49.797,7.328,0.004,2.47
9.96,-49.797,7.328,0,2.468
9.96,-49.797,7.296,0.006,2.47
9.96,-49.797,7.277,0.002,2.471
9.96,-49.797,7.265,0,2.469
9.961,-49.798,7.254,0,2.469
9.961,-49.798,7.242,0,2.469
9.961,-49.797,7.144,0.007,2.469
9.961,-49.797,7.082,0.007,2.47
9.961,-49.797,7.07,0,2.47
9.961,-49.797,7.082,-0.002,2.468
9.961,-49.797,7.07,0,2.467
9.961,-49.796,7.023,0.001,2.471
9.961,-49.796,7.011,0,2.47
9.962,-49.795,6.995,0.001,2.471
9.962,-49.794,6.967,0.002,2.469
9.962,-49.794,6.916,0.003,2.47
9.962,-49.794,6.874,0.002,2.47
9.962,-49.795,6.851,0,2.469
9.962,-49.795,6.851,0,2.468
9.962,-49.795,6.851,0,2.469
9.961,-49.796,6.859,-0.001,2.468
9.961,-49.796,6.859,0,2.47
9.961,-49.796,6.847,0,2.468
9.961,-49.797,6.836,0,2.471
9.961,-49.797,6.825,0.003,2.47
9.961,-49.797,6.825,0.001,2.47
9.96,-49.798,6.79,0.002,2.472
9.96,-49.799,6.725,0.006,2.469
9.96,-49.798,6.677,0.006,2.469
9.96,-49.795,6.582,0.012,2.469
9.959,-49.793,6.362,0.028,2.469
9.958,-49.792,6.28,0.022,2.469
9.955,-49.784,5.766,0.045,2.467
9.954,-49.78,5.234,0.058,2.469
9.953,-49.779,4.906,0.045,2.471
9.95,-49.778,4.618,0.041,2.468
9.945,-49.777,4.309,0.019,2.472
9.935,-49.771,3.637,0.033,2.47
9.931,-49.768,3.087,0.052,2.468
9.923,-49.767,1.989,0.065,2.469
9.922,-49.763,1.102,0.072,2.47
9.922,-49.758,0.371,0.244,2.47
9.911,-49.758,-0.263,0.426,2.469
9.906,-49.758,-0.393,0.447,2.469
9.907,-49.757,-0.459,0.469,2.469
9.912,-49.752,-0.572,0.515,2.471
9.921,-49.744,-0.829,0.62,2.47
9.925,-49.742,-1.266,0.783,2.469
9.919,-49.756,-1.61,0.888,2.469
9.915,-49.772,-1.888,0.98,2.469
9.914,-49.773,-2.238,1.123,2.469
9.913,-49.767,-2.708,1.292,2.469
9.883,-49.774,-3.507,1.575,2.469
9.868,-49.782,-3.972,1.744,2.469
9.863,-49.785,-4.427,1.914,2.47
9.864,-49.776,-5.066,2.14,2.47
9.861,-49.769,-5.411,2.224,2.471
9.837,-49.771,-5.707,2.322,2.47
9.817,-49.782,-6.048,2.453,2.471
9.811,-49.795,-6.484,2.61,2.469
9.817,-49.803,-6.912,2.756,2.469
9.826,-49.794,-6.997,2.752,2.468
9.831,-49.793,-7.019,2.76,2.471
9.83,-49.794,-6.999,2.751,2.469
9.832,-49.796,-6.953,2.732,2.47
9.832,-49.798,-6.784,2.655,2.47
9.832,-49.801,-6.032,2.344,2.472
9.849,-49.804,-4.587,1.767,2.47
9.886,-49.837,-0.382,0.279,2.467
9.907,-49.839,0.248,-0.038,2.468
9.893,-49.875,1.739,-0.13,2.47
9.865,-49.895,3.121,-0.172,2.47
9.825,-49.94,6.587,-0.184,2.469
9.828,-49.963,8.991,-0.154,2.473
9.835,-49.976,10.255,-0.112,2.47
9.843,-49.992,11.234,-0.056,2.469
9.847,-49.996,11.539,-0.024,2.468
9.849,-49.996,11.717,-0.015,2.471
9.849,-49.995,11.99,-0.034,2.468
9.846,-49.995,12.518,-0.044,2.468
9.847,-49.993,12.928,-0.033,2.468
9.846,-49.996,13.306,-0.017,2.468
9.85,-49.996,13.555,-0.023,2.471
9.858,-49.995,13.915,-0.039,2.471
9.858,-49.992,14.697,-0.018,2.47
9.858,-49.992,14.904,-0.015,2.471
9.858,-49.994,15.046,-0.031,2.469
9.856,-49.999,15.439,-0.033,2.472
9.855,-50.005,16.111,-0.039,2.467
9.855,-50.005,16.536,-0.047,2.468
9.85,-50.005,17.174,-0.05,2.47
9.847,-50,17.842,-0.036,2.468
9.847,-49.986,18.473,-0.042,2.471
9.848,-49.977,19.146,-0.068,2.471
9.846,-49.964,20.427,-0.07,2.469
9.846,-49.959,20.968,-0.058,2.471
9.85,-49.948,21.814,-0.051,2.469
9.857,-49.941,22.428,-0.046,2.467
9.86,-49.939,23.064,-0.052,2.468
9.859,-49.94,23.616,-0.053,2.467
9.855,-49.94,24.586,-0.054,2.47
9.85,-49.939,25.259,-0.094,2.467
9.847,-49.938,25.555,-0.075,2.472
9.842,-49.928,26.347,-0.041,2.471
9.847,-49.918,27.344,-0.064,2.47
9.846,-49.918,28.29,-0.074,2.47
9.843,-49.917,28.932,-0.058,2.468
9.834,-49.913,29.573,-0.032,2.466
9.832,-49.91,30.296,-0.033,2.469
9.832,-49.914,30.762,-0.032,2.469
9.832,-49.914,31.088,-0.027,2.471
9.832,-49.91,31.851,-0.041,2.473
9.834,-49.907,32.391,-0.051,2.468
9.834,-49.902,33.458,-0.077,2.471
9.835,-49.89,34.717,-0.074,2.466
9.84,-49.879,35.588,-0.08,2.469
9.844,-49.876,37.259,-0.116,2.468
9.834,-49.887,38.53,0,2.47
9.818,-49.896,39.51,-0.065,2.471
9.813,-49.896,39.906,-0.032,2.47
9.817,-49.896,40.211,-0.031,2.469
9.822,-49.904,40.987,-0.053,2.471
9.822,-49.912,41.562,-0.05,2.467
9.821,-49.916,42.135,-0.052,2.467
9.821,-49.927,43.132,-0.057,2.47
9.824,-49.939,44.071,-0.042,2.47
9.836,-49.952,44.662,-0.044,2.471
9.845,-49.962,45.129,-0.046,2.472
9.851,-49.967,45.461,-0.024,2.469
9.854,-49.969,45.739,-0.024,2.47
9.857,-49.976,46.063,-0.016,2.468
9.856,-49.98,46.181,-0.002,2.47
9.854,-49.978,46.148,0.011,2.468
9.854,-49.972,46.04,0.003,2.471
9.855,-49.973,46.051,-0.006,2.469
9.856,-49.98,46.139,-0.013,2.468
9.855,-49.99,46.263,0.001,2.47
9.854,-49.991,46.244,0.004,2.471
9.854,-49.991,46.244,0,2.469
9.853,-49.992,46.245,-0.002,2.472
9.853,-49.994,46.227,0,2.47
9.853,-49.996,46.219,0,2.471
9.853,-49.996,46.219,0,2.469
9.852,-49.995,46.208,0.003,2.468
9.849,-49.995,46.187,0.004,2.469
9.85,-49.992,46.123,0.002,2.469
9.851,-49.994,46.124,-0.003,2.47
9.852,-49.995,46.126,0.002,2.47
9.851,-49.997,46.117,0.003,2.473
9.852,-49.991,46.008,0.005,2.468
9.852,-49.989,45.954,0.007,2.471
9.853,-49.988,45.944,0,2.468
9.852,-49.989,45.934,0.005,2.469
9.85,-49.989,45.894,0.007,2.47
9.848,-49.988,45.729,0.015,2.469
9.85,-49.986,45.582,0.002,2.469
9.851,-49.986,45.572,0.001,2.471
9.851,-49.983,45.517,0.008,2.471
9.853,-49.978,45.409,0.009,2.47
9.852,-49.98,45.371,0,2.469
9.851,-49.983,45.374,0.003,2.473
9.851,-49.984,45.344,0.001,2.469
9.852,-49.983,45.322,0.001,2.471
9.854,-49.984,45.312,0,2.469
9.853,-49.984,45.312,0,2.471
9.853,-49.982,45.291,0.002,2.471
9.853,-49.982,45.291,0,2.467
9.853,-49.982,45.28,0,2.468
9.853,-49.982,45.259,0.001,2.472
9.853,-49.984,45.241,0,2.469
9.853,-49.985,45.231,0,2.47
9.852,-49.985,45.222,0,2.471
9.852,-49.985,45.222,0,2.471
9.852,-49.985,45.222,0,2.468
9.853,-49.983,45.168,0.008,2.471
9.853,-49.983,45.137,0,2.467
9.853,-49.983,45.075,0.007,2.47
9.853,-49.983,45.066,0,2.47
9.854,-49.983,45.066,0,2.468
9.854,-49.984,45.056,0,2.469
9.854,-49.984,45.056,0,2.469
9.854,-49.983,45.045,0.001,2.474
9.856,-49.982,45.023,0.002,2.47
9.857,-49.983,45.023,0,2.471
9.856,-49.983,44.993,0.002,2.469
9.858,-49.98,44.928,0.004,2.468
9.859,-49.98,44.928,-0.002,2.468
9.859,-49.982,44.919,0.002,2.469
9.858,-49.981,44.888,0.007,2.471
9.859,-49.978,44.824,0.002,2.469
9.859,-49.978,44.824,0,2.472
9.859,-49.978,44.803,0.001,2.471
9.86,-49.974,44.666,0.008,2.472
9.86,-49.973,44.562,0.01,2.469
9.861,-49.973,44.541,0,2.47
9.86,-49.976,44.565,0,2.467
9.86,-49.976,44.565,0,2.47
9.86,-49.976,44.565,0,2.469
9.86,-49.976,44.565,0,2.468
9.86,-49.977,44.576,-0.001,2.47
9.859,-49.979,44.578,0.001,2.472
9.858,-49.98,44.579,0.001,2.472
9.858,-49.98,44.579,0,2.47
9.858,-49.981,44.57,0.001,2.47
9.858,-49.981,44.59,-0.003,2.47
9.858,-49.982,44.623,-0.001,2.47
9.858,-49.982,44.612,0,2.47
9.858,-49.982,44.612,0,2.469
9.858,-49.982,44.623,-0.003,2.472
9.857,-49.984,44.624,-0.003,2.471
9.857,-49.984,44.635,0,2.47
9.857,-49.985,44.625,0,2.472
9.858,-49.984,44.635,0,2.471
9.857,-49.987,44.657,-0.003,2.47
9.857,-49.986,44.647,0.001,2.47
9.857,-49.984,44.603,0.006,2.469
9.857,-49.984,44.603,0,2.471
9.857,-49.984,44.603,0,2.47
9.858,-49.982,44.582,0.003,2.469
9.858,-49.982,44.582,0,2.472
9.857,-49.984,44.593,-0.005,2.47
9.857,-49.985,44.584,0,2.468
9.856,-49.984,44.584,0,2.47
9.855,-49.984,44.573,0.001,2.47
9.856,-49.982,44.551,0,2.47
9.857,-49.983,44.551,0,2.47
9.857,-49.983,44.551,0,2.471
9.857,-49.981,44.519,0,2.47
9.857,-49.981,44.519,0,2.47
9.857,-49.981,44.519,0,2.469
9.857,-49.981,44.519,0,2.47
9.857,-49.981,44.519,0,2.471
9.857,-49.981,44.519,0,2.47
9.857,-49.981,44.519,0,2.47
9.857,-49.981,44.519,0,2.466
9.857,-49.981,44.519,0,2.469
9.857,-49.982,44.52,-0.001,2.471
9.857,-49.983,44.5,0.002,2.47
9.856,-49.984,44.491,0,2.471
9.856,-49.983,44.491,0,2.47
9.857,-49.982,44.499,0,2.47
9.857,-49.982,44.49,0,2.471
9.857,-49.985,44.502,-0.003,2.47
9.856,-49.988,44.546,-0.001,2.47
9.855,-49.987,44.535,0.001,2.471
9.856,-49.986,44.524,0,2.47
9.856,-49.986,44.524,0,2.47
9.856,-49.986,44.513,0.002,2.47
9.856,-49.985,44.502,0.001,2.467
9.856,-49.985,44.502,0,2.468
9.856,-49.986,44.493,0,2.471
9.856,-49.986,44.472,0.001,2.471
9.856,-49.985,44.461,0,2.47
9.856,-49.985,44.43,0.002,2.471
9.857,-49.98,44.343,0.005,2.471
9.858,-49.978,44.301,0,2.47
9.858,-49.977,44.239,0.007,2.468
9.858,-49.975,44.124,0.014,2.469
9.858,-49.973,44.03,0.013,2.469
9.859,-49.971,43.956,0.008,2.471
9.859,-49.972,43.947,-0.001,2.468
9.858,-49.974,43.949,0,2.472
9.859,-49.973,43.927,0.001,2.47
9.86,-49.974,43.949,-0.002,2.471
9.859,-49.975,43.95,0,2.469
9.858,-49.976,43.94,0.003,2.47
9.858,-49.976,43.94,0.003,2.469
9.858,-49.976,43.94,0,2.472
9.857,-49.979,43.984,-0.005,2.469
9.857,-49.98,43.995,0,2.471
9.857,-49.98,43.974,0,2.468
9.856,-49.981,44.007,-0.004,2.472
9.855,-49.983,44.039,-0.003,2.468
9.854,-49.982,44.028,0.005,2.472
9.854,-49.981,44.027,-0.001,2.47
9.854,-49.983,44.06,-0.004,2.471
9.853,-49.985,44.072,0.004,2.47
9.854,-49.986,44.063,0.004,2.47
9.853,-49.988,44.054,0,2.471
9.853,-49.988,44.054,0,2.468
9.853,-49.987,44.043,0,2.471
9.853,-49.987,44.053,-0.001,2.468
9.853,-49.987,44.064,0,2.469
9.853,-49.991,44.097,-0.001,2.473
9.852,-49.992,44.119,-0.001,2.47
9.852,-49.992,44.119,0,2.471
9.852,-49.992,44.119,0,2.472
9.852,-49.993,44.151,-0.002,2.469
9.852,-49.993,44.151,0,2.469
9.853,-49.993,44.13,0,2.469
9.853,-49.993,44.13,0,2.467
9.853,-49.993,44.13,0,2.47
9.853,-49.992,44.139,0,2.472
9.853,-49.992,44.139,0,2.471
9.853,-49.991,44.129,0,2.468
9.853,-49.991,44.129,0,2.472
9.853,-49.992,44.139,0,2.47
9.853,-49.993,44.13,0,2.47
9.853,-49.994,44.11,0.005,2.468
9.853,-49.993,44.099,0.003,2.471
9.853,-49.991,44.088,0.004,2.47
9.854,-49.989,44.055,0.005,2.468
9.853,-49.987,44.012,0,2.47
9.853,-49.987,44.012,0,2.47
9.854,-49.987,44.012,0,2.469
9.854,-49.987,44.012,0,2.471
9.854,-49.987,44.012,0,2.469
9.854,-49.986,44.022,-0.003,2.471
9.854,-49.985,44,0.005,2.47
9.855,-49.983,43.957,0.009,2.471
9.855,-49.978,43.84,0.012,2.469
9.854,-49.971,43.579,0.024,2.47
9.851,-49.964,43.092,0.053,2.472
9.842,-49.956,42.046,0.078,2.468
9.836,-49.955,41.382,0.088,2.471
9.831,-49.958,40.669,0.087,2.47
9.824,-49.966,39.672,0.083,2.47
9.804,-49.982,38.278,0.102,2.468
9.781,-49.993,36.929,0.125,2.468
9.74,-49.998,33.975,0.155,2.469
9.726,-49.991,32.517,0.166,2.47
9.713,-49.979,30.929,0.167,2.47
9.695,-49.954,28.549,0.158,2.471
9.689,-49.92,25.747,0.15,2.47
9.683,-49.906,24.203,0.138,2.468
9.68,-49.894,21.79,0.129,2.469
9.674,-49.888,20.035,0.126,2.469
9.661,-49.868,17.753,0.106,2.471
9.646,-49.843,16.269,0.099,2.469
9.641,-49.821,15.107,0.092,2.473
9.643,-49.797,13.823,0.091,2.471
9.651,-49.776,12.805,0.084,2.469
9.658,-49.761,12.001,0.076,2.47
9.661,-49.751,10.779,0.058,2.471
9.662,-49.744,10.16,0.066,2.469
9.662,-49.736,9.513,0.07,2.466
9.661,-49.728,8.375,0.051,2.469
9.659,-49.732,7.625,0.04,2.469
9.657,-49.735,7.162,0.042,2.469
9.657,-49.733,6.665,0.046,2.468
9.66,-49.725,6.039,0.051,2.471
9.661,-49.723,5.799,0.054,2.47
9.661,-49.717,5.168,0.062,2.47
9.662,-49.714,4.444,0.066,2.47
9.662,-49.721,3.629,0.055,2.471
9.659,-49.734,3.092,0.045,2.471
9.656,-49.745,2.64,0.052,2.47
9.652,-49.759,1.971,0.056,2.469
9.649,-49.772,1.178,0.07,2.47
9.655,-49.782,0.411,0.071,2.471
9.665,-49.793,-0.454,0.162,2.47
9.665,-49.799,-0.422,0.304,2.47
9.667,-49.801,-0.312,0.174,2.471
9.672,-49.805,-0.403,0.181,2.47
9.676,-49.809,-0.454,0.289,2.469
9.685,-49.809,-0.529,0.17,2.47
9.694,-49.806,-0.794,0.138,2.468
9.691,-49.81,-0.841,0.363,2.472
9.69,-49.805,-1.035,0.08,2.47
9.682,-49.806,-0.984,0.621,2.468
9.693,-49.795,-1.145,0.475,2.469
9.708,-49.769,-1.662,0.38,2.47
9.702,-49.761,-1.681,0.526,2.469
9.695,-49.754,-1.499,0.549,2.471
9.698,-49.751,-1.672,0.473,2.471
9.699,-49.751,-1.483,0.631,2.468
9.708,-49.753,-1.294,0.703,2.469
9.723,-49.75,-1.572,0.343,2.47
9.743,-49.74,-2.206,0.638,2.468
9.747,-49.732,-2.165,0.822,2.472
9.749,-49.719,-2.377,0.566,2.47
9.741,-49.697,-1.984,0.964,2.47
9.748,-49.682,-2.195,0.773,2.468
9.757,-49.654,-2.784,1.012,2.47
9.755,-49.631,-2.951,0.855,2.47
9.736,-49.623,-2.923,1.037,2.468
9.709,-49.612,-2.953,1.037,2.472
9.7,-49.601,-3.16,0.933,2.469
9.697,-49.592,-2.853,1.364,2.469
9.712,-49.583,-2.296,0.726,2.469
9.735,-49.591,-2.51,0.778,2.47
9.746,-49.597,-2.519,0.739,2.469
9.754,-49.597,-2.367,0.863,2.47
9.756,-49.595,-2.315,0.634,2.47
9.756,-49.591,-2.259,0.901,2.469
9.763,-49.592,-2.341,0.935,2.472
9.769,-49.593,-2.399,0.722,2.47
9.788,-49.597,-1.847,1.016,2.467
9.796,-49.595,-1.83,0.811,2.47
9.796,-49.591,-2.333,0.898,2.47
9.785,-49.589,-2.512,0.909,2.47
9.788,-49.584,-2.285,0.807,2.466
9.789,-49.587,-2.305,0.862,2.471
9.795,-49.595,-2.905,0.581,2.47
9.787,-49.607,-2.697,1.121,2.47
9.784,-49.61,-1.844,0.672,2.471
9.801,-49.628,-2.003,0.741,2.471
9.797,-49.641,-1.68,0.786,2.468
9.804,-49.645,-1.576,0.688,2.472
9.815,-49.645,-1.875,0.444,2.47
9.842,-49.656,-1.027,0.739,2.469
9.847,-49.652,-1.224,0.443,2.471
9.859,-49.648,-1.767,0.492,2.47
9.849,-49.651,-1.632,0.748,2.47
9.851,-49.646,-1.192,0.482,2.469
9.862,-49.65,-1.402,0.477,2.469
9.866,-49.643,-1.559,0.427,2.47
9.865,-49.641,-1.656,0.459,2.471
9.86,-49.642,-1.602,0.55,2.47
9.859,-49.643,-1.501,0.708,2.471
9.857,-49.641,-1.427,0.497,2.469
9.858,-49.64,-1.462,0.654,2.47
9.86,-49.634,-1.627,0.562,2.472
9.861,-49.629,-1.761,0.644,2.469
9.861,-49.624,-1.601,0.919,2.47
9.867,-49.619,-1.688,0.531,2.469
9.871,-49.62,-1.924,0.715,2.47
9.869,-49.616,-1.947,0.564,2.468
9.866,-49.616,-1.908,0.767,2.472
9.869,-49.614,-2.155,0.559,2.468
9.862,-49.625,-1.632,0.807,2.471
9.864,-49.623,-1.592,0.347,2.47
9.879,-49.627,-1.592,0.768,2.467
9.879,-49.625,-1.708,0.652,2.472
9.889,-49.617,-2.34,0.401,2.47
9.886,-49.622,-2.319,1.117,2.471
9.884,-49.613,-1.561,0.523,2.471
9.894,-49.617,-1.472,0.728,2.469
9.892,-49.621,-1.415,0.693,2.471
9.895,-49.613,-1.939,0.635,2.47
9.896,-49.608,-1.395,0.72,2.467
9.898,-49.606,-1.418,0.546,2.469
9.907,-49.598,-2.03,0.392,2.472
9.894,-49.585,-2.293,0.634,2.469
9.893,-49.586,-1.702,0.856,2.47
9.898,-49.584,-1.527,0.494,2.473
9.912,-49.589,-1.686,0.63,2.47
9.908,-49.591,-1.532,0.954,2.47
9.92,-49.578,-1.751,0.764,2.47
9.925,-49.572,-2.041,0.797,2.471
9.926,-49.568,-2.028,0.766,2.469
9.925,-49.566,-1.908,0.929,2.469
9.927,-49.559,-1.993,0.677,2.468
9.935,-49.554,-2.202,0.785,2.47
9.95,-49.529,-2.763,0.792,2.47
9.955,-49.519,-2.507,0.966,2.469
9.957,-49.519,-2.361,0.884,2.47
9.965,-49.525,-2.521,0.858,2.47
9.972,-49.527,-2.355,0.943,2.469
9.983,-49.527,-2.365,0.767,2.469
10.009,-49.519,-2.78,0.92,2.47
10.043,-49.502,-2.932,0.969,2.471
10.065,-49.493,-2.977,1.104,2.47
10.084,-49.486,-2.833,1.251,2.467
10.101,-49.476,-2.755,0.992,2.472
10.129,-49.459,-3.709,1.787,2.472
10.122,-49.458,-3.237,1.488,2.469
10.133,-49.448,-1.986,1.064,2.471
10.153,-49.443,-2.334,0.726,2.47
10.166,-49.453,-2.831,1.189,2.469
10.175,-49.444,-2.608,0.98,2.471
10.205,-49.428,-2.965,0.991,2.468
10.226,-49.411,-3.083,1.226,2.472
10.237,-49.393,-3.144,0.885,2.469
10.25,-49.385,-3.193,1.417,2.472
10.257,-49.363,-3.214,0.999,2.469
10.269,-49.344,-2.901,1.284,2.469
10.282,-49.331,-2.817,0.955,2.471
10.305,-49.32,-3.154,1.096,2.47
10.324,-49.304,-3.217,1.326,2.469
10.338,-49.295,-3.117,1.068,2.468
10.36,-49.287,-3.405,1.073,2.473
10.381,-49.275,-3.745,1.103,2.47
10.407,-49.257,-2.616,1.372,2.469
10.457,-49.241,-2.764,1.058,2.472
10.479,-49.232,-3.311,1.183,2.47
10.497,-49.218,-3.073,1.403,2.471
10.517,-49.206,-2.815,0.953,2.47
10.534,-49.204,-3.039,1.358,2.469
10.541,-49.199,-3.01,1.131,2.47
10.565,-49.192,-3.512,1.184,2.47
10.577,-49.192,-3.277,1.234,2.47
10.585,-49.193,-3.118,1.103,2.472
10.599,-49.198,-3.205,1.153,2.47
10.601,-49.201,-2.766,1.258,2.47
10.612,-49.203,-2.849,1.037,2.472
10.616,-49.204,-3.038,1.153,2.47
10.614,-49.203,-2.79,1.253,2.472
10.623,-49.201,-2.941,1.073,2.471
10.621,-49.203,-2.921,1.377,2.469
10.616,-49.202,-2.638,1.038,2.469
10.611,-49.211,-3.167,0.986,2.47
10.598,-49.214,-3.179,1.042,2.471
10.584,-49.218,-2.99,1.056,2.471
10.58,-49.224,-2.83,1.156,2.469
10.58,-49.23,-2.633,1.104,2.469
10.583,-49.236,-3.08,0.931,2.47
10.578,-49.233,-3.123,1.01,2.47
10.581,-49.231,-3.054,1.156,2.469
10.584,-49.23,-3.038,1.098,2.471
10.586,-49.231,-3.126,1.045,2.469
10.584,-49.227,-2.762,1.162,2.47
10.587,-49.224,-2.914,0.902,2.472
10.584,-49.226,-3.089,1.169,2.469
10.584,-49.218,-2.628,1.212,2.471
10.592,-49.218,-3.062,0.949,2.47
10.583,-49.221,-2.904,1.179,2.47
10.589,-49.214,-2.716,1.005,2.47
10.605,-49.217,-3.066,1.14,2.471
10.615,-49.213,-3.071,1.076,2.471
10.622,-49.211,-3.039,1.218,2.468
10.634,-49.207,-2.867,1.23,2.472
10.65,-49.2,-3.23,0.942,2.471
10.661,-49.194,-3.038,1.411,2.471
10.684,-49.185,-2.742,1.203,2.469
10.701,-49.181,-2.949,1.189,2.471
10.719,-49.166,-3.441,1.094,2.471
10.716,-49.166,-3.246,1.344,2.473
10.722,-49.167,-3.03,1.298,2.47
10.729,-49.169,-2.946,1.476,2.47
10.742,-49.166,-3.004,1.108,2.469
10.752,-49.161,-3.227,1.231,2.469
10.76,-49.15,-3.313,1.117,2.471
10.77,-49.141,-3.444,1.135,2.47
10.769,-49.14,-3.217,1.359,2.473
10.779,-49.14,-3.153,1.126,2.47
10.782,-49.138,-2.617,1.343,2.471
10.793,-49.134,-2.604,1.032,2.471
10.791,-49.133,-2.798,1.207,2.471
10.793,-49.134,-2.827,1.159,2.471
10.797,-49.134,-2.88,1.212,2.471
10.802,-49.135,-2.845,1.183,2.471
10.803,-49.135,-2.833,1.166,2.47
10.803,-49.136,-2.838,1.133,2.47
10.801,-49.136,-2.856,1.084,2.472
10.8,-49.134,-2.88,1.091,2.47
10.8,-49.136,-2.733,1.365,2.472
10.809,-49.138,-2.897,1.103,2.47
10.809,-49.135,-2.653,1.238,2.469
10.815,-49.135,-2.911,1.079,2.47
10.817,-49.135,-3.298,1.054,2.471
10.814,-49.132,-3.211,1.119,2.472
10.819,-49.134,-3,1.298,2.472
10.825,-49.135,-2.679,1.329,2.471
10.84,-49.133,-2.478,1.271,2.471
10.851,-49.129,-2.669,1.184,2.471
10.86,-49.122,-2.963,1.233,2.47
10.865,-49.119,-2.86,1.267,2.471
10.872,-49.116,-3.027,1.137,2.47
10.873,-49.111,-3.025,1.196,2.472
10.878,-49.11,-3.067,1.194,2.472
10.883,-49.11,-2.905,1.403,2.471
10.905,-49.105,-2.719,1.257,2.47
10.919,-49.103,-2.816,1.205,2.471
10.935,-49.095,-3.109,1.199,2.469
10.937,-49.092,-3.105,0.99,2.473
10.941,-49.09,-3.2,1.033,2.472
10.939,-49.09,-2.874,1.554,2.467
10.95,-49.084,-2.363,1.24,2.472
10.969,-49.081,-3.192,0.808,2.471
10.964,-49.076,-3.398,1.467,2.473
10.975,-49.074,-2.844,1.153,2.471
10.978,-49.076,-2.918,1.52,2.47
10.976,-49.074,-2.786,1.149,2.471
10.976,-49.068,-3.126,1.205,2.471
10.976,-49.063,-3.008,1.254,2.471
10.978,-49.062,-2.916,1.247,2.474
10.981,-49.061,-2.923,1.268,2.472
10.982,-49.062,-2.656,1.552,2.471
10.994,-49.062,-2.542,1.216,2.47
11.007,-49.062,-2.896,1.24,2.472
11.01,-49.056,-3.103,1.2,2.472
11.012,-49.057,-2.987,1.388,2.472
11.017,-49.054,-2.822,1.267,2.472
11.021,-49.053,-2.869,1.419,2.473
11.026,-49.048,-2.931,1.332,2.468
11.031,-49.044,-2.83,1.533,2.473
11.047,-49.031,-3.781,1.189,2.471
11.039,-49.027,-3.5,1.668,2.47
11.034,-49.02,-2.903,1.158,2.472
11.053,-49.027,-3.155,1.241,2.471
11.049,-49.023,-2.81,1.396,2.472
11.058,-49.027,-2.913,1.192,2.472
11.066,-49.023,-2.789,1.349,2.473
11.067,-49.021,-2.722,1.225,2.471
11.07,-49.02,-2.613,1.459,2.473
11.071,-49.018,-2.811,1.23,2.472
11.066,-49.017,-2.851,1.438,2.473
11.064,-49.013,-2.634,1.33,2.47
11.067,-49.013,-2.634,1.393,2.47
11.07,-49.012,-3.009,1.169,2.471
11.075,-49.008,-3.191,1.151,2.472
11.081,-49.009,-3.122,1.206,2.473
11.088,-49.008,-2.692,1.292,2.471
11.105,-49.001,-2.324,1.34,2.473
11.119,-48.994,-2.686,1.225,2.471
11.128,-48.984,-2.411,1.323,2.471
11.132,-48.983,-2.395,1.1,2.47
11.142,-48.983,-2.672,1.182,2.472
11.148,-48.976,-3.049,1.194,2.472
11.156,-48.972,-2.989,1.406,2.473
11.171,-48.967,-2.752,1.299,2.471
11.185,-48.964,-2.578,1.351,2.472
11.194,-48.96,-2.832,1.172,2.472
11.191,-48.957,-2.896,1.42,2.472
11.19,-48.954,-2.715,1.252,2.471
11.195,-48.954,-2.732,1.291,2.472
11.204,-48.951,-2.901,1.223,2.474
11.218,-48.944,-2.791,1.327,2.471
11.235,-48.935,-2.176,1.38,2.475
11.265,-48.921,-2.698,1.227,2.472
11.266,-48.915,-2.69,1.679,2.475
11.271,-48.906,-2.387,1.171,2.471
11.283,-48.908,-2.381,1.596,2.475
11.293,-48.895,-2.832,1.883,2.472
11.29,-48.885,-2.161,1.52,2.473
11.304,-48.884,-2.129,1.212,2.474
11.313,-48.882,-2.499,1.355,2.473
11.314,-48.873,-2.304,1.388,2.474
11.321,-48.873,-2.31,1.291,2.475
11.326,-48.869,-2.075,1.444,2.474
11.329,-48.867,-1.918,1.56,2.474
11.337,-48.865,-1.999,1.425,2.474
11.342,-48.859,-2.075,1.407,2.473
11.345,-48.857,-2.099,1.401,2.477
11.351,-48.851,-2.193,1.312,2.473
11.354,-48.84,-1.6,1.599,2.476
11.37,-48.834,-1.852,1.203,2.475
11.372,-48.821,-1.746,1.596,2.478
11.382,-48.818,-1.748,1.4,2.476
11.39,-48.815,-1.491,1.79,2.478
11.396,-48.808,-1.125,1.356,2.474
11.408,-48.805,-1.155,1.685,2.478
11.421,-48.8,-1.517,1.342,2.476
11.433,-48.79,-1.22,1.629,2.478
11.46,-48.785,-1.296,1.506,2.479
11.468,-48.777,-1.222,1.633,2.479
11.503,-48.769,-0.781,1.66,2.48
11.521,-48.767,-0.727,1.678,2.478
11.532,-48.765,-0.668,1.775,2.479
11.547,-48.761,-0.671,1.561,2.479
11.571,-48.754,-0.642,1.672,2.478
11.579,-48.749,-0.566,1.596,2.479
11.588,-48.745,-0.674,1.507,2.48
11.603,-48.732,-0.37,1.637,2.48
11.612,-48.73,-0.255,1.738,2.481
11.62,-48.726,-0.108,1.651,2.483
11.627,-48.722,0.084,1.78,2.481
11.635,-48.719,0.508,1.911,2.482
11.663,-48.711,0.475,1.609,2.483
11.667,-48.704,0.421,1.754,2.482
11.67,-48.694,0.698,1.764,2.482
11.688,-48.69,0.683,1.637,2.483
11.689,-48.686,0.698,1.677,2.481
11.691,-48.685,0.758,1.753,2.483
11.7,-48.681,0.579,1.557,2.482
11.7,-48.678,0.743,1.828,2.484
11.713,-48.674,0.916,1.613,2.481
11.719,-48.672,1.019,1.873,2.485
11.724,-48.662,1.102,1.435,2.483
11.734,-48.652,1.513,1.78,2.484
11.748,-48.648,1.724,1.558,2.483
11.763,-48.64,1.505,1.676,2.484
11.769,-48.631,1.445,1.527,2.484
11.775,-48.626,1.393,1.712,2.485
11.779,-48.621,1.548,1.625,2.482
11.781,-48.617,1.874,1.743,2.485
11.789,-48.608,1.224,2.051,2.481
11.787,-48.6,1.423,1.896,2.486
11.796,-48.592,1.402,1.387,2.483
11.791,-48.579,2.103,1.36,2.485
11.8,-48.571,2.213,1.404,2.484
11.809,-48.565,1.873,1.702,2.485
11.805,-48.556,1.863,1.598,2.485
11.809,-48.544,2.139,1.691,2.485
11.813,-48.539,2.131,1.611,2.488
11.816,-48.53,2.05,1.698,2.485
11.826,-48.52,2.58,1.885,2.486
11.844,-48.512,2.57,1.478,2.488
11.862,-48.501,2.218,1.835,2.487
11.871,-48.489,2.568,1.976,2.488
11.904,-48.476,2.802,1.946,2.487
11.918,-48.467,2.958,1.858,2.49
11.922,-48.464,2.962,1.674,2.49
11.929,-48.46,3.49,1.967,2.49
11.944,-48.45,3.853,1.838,2.49
11.954,-48.444,3.78,1.914,2.488
11.959,-48.437,3.744,1.91,2.49
11.961,-48.433,3.603,1.61,2.487
11.967,-48.431,3.575,1.934,2.489
11.973,-48.427,3.455,1.54,2.488
11.973,-48.419,3.446,1.811,2.488
11.974,-48.417,3.514,1.609,2.488
11.981,-48.416,3.391,1.726,2.488
11.984,-48.413,3.437,1.734,2.489
11.99,-48.41,3.414,1.735,2.49
11.998,-48.406,3.571,1.821,2.487
12.006,-48.402,3.708,1.855,2.487
12.013,-48.398,3.541,1.5,2.488
12.018,-48.393,3.187,1.683,2.486
12.02,-48.385,3.21,1.738,2.488
12.032,-48.378,2.915,1.544,2.485
12.033,-48.372,3.077,1.779,2.487
12.034,-48.367,3.08,1.403,2.487
12.034,-48.367,2.905,1.704,2.486
12.034,-48.361,2.918,1.661,2.485
12.035,-48.357,3.023,1.553,2.485
12.037,-48.352,2.756,1.521,2.485
12.037,-48.344,2.584,1.458,2.485
12.038,-48.342,2.541,1.582,2.484
12.038,-48.337,2.629,1.544,2.483
12.039,-48.332,2.543,1.433,2.484
12.043,-48.323,2.18,1.38,2.487
12.044,-48.309,1.95,1.61,2.483
12.046,-48.299,2.369,1.875,2.487
12.052,-48.292,2.541,1.273,2.483
12.061,-48.292,2.389,1.852,2.485
12.065,-48.283,2.286,1.363,2.484
12.068,-48.276,1.995,1.713,2.484
12.068,-48.274,2.047,1.489,2.483
12.073,-48.272,1.926,1.587,2.483
12.079,-48.262,1.693,1.49,2.483
12.083,-48.254,1.519,1.635,2.485
12.088,-48.249,1.497,1.613,2.483
12.094,-48.243,1.727,1.753,2.482
12.108,-48.238,1.648,1.589,2.482
12.113,-48.229,1.322,1.473,2.479
12.115,-48.223,1.071,1.671,2.482
12.121,-48.217,0.453,1.383,2.482
12.124,-48.212,0.474,1.811,2.48
12.129,-48.206,1.06,1.573,2.479
12.141,-48.2,0.406,1.491,2.479
12.14,-48.193,0.266,1.46,2.478
12.142,-48.189,0.177,1.42,2.478
12.145,-48.186,0.157,1.35,2.476
12.149,-48.177,-0.098,1.315,2.476
12.151,-48.168,-0.566,1.286,2.476
12.166,-48.149,-1.207,1.425,2.476
12.18,-48.143,-1.206,1.402,2.476
12.191,-48.139,-1.261,1.39,2.474
12.199,-48.133,-1.296,1.449,2.475
12.215,-48.124,-1.833,1.359,2.474
12.219,-48.121,-1.994,1.55,2.473
12.228,-48.109,-2.082,1.395,2.475
12.233,-48.105,-2.225,1.27,2.474
12.236,-48.098,-2.093,1.514,2.474
12.239,-48.099,-2.103,1.409,2.472
12.245,-48.098,-2.31,1.45,2.471
12.25,-48.091,-2.359,1.276,2.473
12.256,-48.089,-2.612,1.246,2.472
12.26,-48.086,-2.823,1.616,2.472
12.266,-48.081,-2.763,1.432,2.472
12.272,-48.075,-2.983,1.416,2.475
12.276,-48.068,-3.025,1.471,2.47
12.283,-48.062,-2.468,1.687,2.471
12.311,-48.056,-3.582,1.387,2.473
12.316,-48.048,-3.965,1.752,2.473
12.319,-48.032,-3.752,1.801,2.471
12.324,-48.031,-3.291,1.615,2.471
12.345,-48.036,-3.341,1.507,2.473
12.353,-48.024,-3.544,1.518,2.47
12.359,-48.019,-3.154,1.688,2.471
12.372,-48.019,-3.283,1.267,2.47
12.378,-48.015,-3.605,1.577,2.474
12.378,-48.007,-3.769,1.422,2.471
12.38,-48.005,-3.35,1.739,2.472
12.388,-48.005,-3.114,1.234,2.472
12.399,-48.007,-3.315,1.561,2.472
12.404,-47.998,-3.335,1.54,2.47
12.408,-47.997,-3.263,1.584,2.474
12.412,-47.996,-3.555,1.359,2.471
12.411,-47.991,-3.464,1.913,2.472
12.419,-47.985,-3.146,1.373,2.471
12.427,-47.984,-3.402,1.571,2.472
12.435,-47.976,-3.473,1.452,2.473
12.441,-47.971,-3.316,1.602,2.47
12.448,-47.97,-3.243,1.619,2.472
12.454,-47.966,-3.373,1.307,2.473
12.461,-47.958,-3.491,1.648,2.471
12.476,-47.946,-3.062,1.593,2.473
12.49,-47.941,-3.405,1.416,2.472
12.494,-47.935,-3.462,1.733,2.471
12.498,-47.928,-3.278,1.465,2.472
12.506,-47.925,-3.409,1.383,2.473
12.512,-47.916,-3.391,1.517,2.471
12.513,-47.91,-3.116,1.632,2.474
12.519,-47.909,-3.274,1.397,2.47
12.522,-47.903,-3.294,1.776,2.473
12.527,-47.894,-3.547,1.35,2.472
12.531,-47.888,-3.541,1.841,2.472
12.538,-47.88,-3.129,1.454,2.471
12.546,-47.88,-3.311,1.525,2.471
12.556,-47.867,-3.468,1.463,2.472
12.559,-47.859,-3.496,1.474,2.471
12.567,-47.852,-3.339,1.521,2.473
12.57,-47.847,-3.445,1.447,2.47
12.573,-47.84,-3.363,1.743,2.47
12.585,-47.831,-3.461,1.384,2.472
12.596,-47.819,-3.789,1.433,2.471
12.599,-47.808,-3.613,1.586,2.473
12.614,-47.803,-3.602,1.499,2.471
12.615,-47.799,-3.403,1.735,2.473
12.616,-47.799,-3.312,1.438,2.472
12.617,-47.799,-3.096,1.621,2.471
12.619,-47.802,-3.169,1.478,2.473
12.619,-47.802,-3.31,1.469,2.469
12.618,-47.801,-3.243,1.709,2.472
12.619,-47.801,-3.878,1.382,2.47
12.618,-47.794,-3.886,1.672,2.471
12.619,-47.797,-3.748,1.392,2.472
12.621,-47.799,-3.775,1.565,2.472
12.62,-47.796,-3.48,1.572,2.472
12.62,-47.799,-3.478,1.592,2.473
12.618,-47.801,-3.51,1.577,2.471
12.618,-47.802,-3.4,1.779,2.471
12.616,-47.807,-3.465,1.431,2.473
12.609,-47.806,-3.651,1.501,2.47
12.606,-47.809,-3.532,1.724,2.471
12.604,-47.819,-3.648,1.439,2.47
12.591,-47.821,-3.755,1.492,2.473
12.573,-47.832,-3.761,1.436,2.471
12.561,-47.841,-3.42,1.665,2.471
12.551,-47.852,-3.48,1.415,2.472
12.537,-47.856,-3.666,1.484,2.472
12.526,-47.86,-3.558,1.607,2.471
12.517,-47.869,-3.485,1.557,2.471
12.508,-47.873,-3.473,1.509,2.471
12.495,-47.875,-3.526,1.483,2.472
12.492,-47.878,-3.523,1.439,2.472
12.491,-47.883,-3.421,1.581,2.472
12.49,-47.887,-3.439,1.551,2.47
12.486,-47.889,-3.35,1.628,2.472
12.485,-47.891,-3.392,1.303,2.471
12.481,-47.896,-3.442,1.612,2.472
12.47,-47.903,-3.422,1.486,2.471
12.461,-47.906,-3.312,1.543,2.47
12.452,-47.911,-3.377,1.484,2.474
12.445,-47.914,-3.492,1.279,2.472
12.437,-47.918,-3.44,1.967,2.472
12.419,-47.929,-3.126,1.533,2.472
12.409,-47.935,-3.218,1.518,2.47
12.397,-47.947,-3.217,1.504,2.473
12.391,-47.958,-3.358,1.364,2.471
12.381,-47.969,-3.295,1.648,2.474
12.377,-47.982,-3.447,1.513,2.469
12.369,-47.986,-3.163,1.79,2.471
12.361,-48.002,-3.714,1.351,2.472
12.348,-48.01,-4.076,1.678,2.473
12.331,-48.015,-3.667,1.621,2.471
12.328,-48.031,-3.395,1.651,2.471
12.322,-48.044,-3.61,1.52,2.471
12.306,-48.051,-3.713,1.594,2.472
12.293,-48.064,-3.732,1.493,2.472
12.289,-48.069,-3.705,1.679,2.473
12.272,-48.084,-3.429,1.593,2.471
12.26,-48.096,-3.4,1.696,2.471
12.242,-48.111,-3.539,1.555,2.472
12.23,-48.117,-3.699,1.537,2.471
12.221,-48.121,-3.712,1.619,2.473
12.211,-48.128,-3.79,1.516,2.471
12.204,-48.134,-3.704,1.777,2.472
12.196,-48.142,-3.694,1.573,2.473
12.188,-48.146,-3.801,1.647,2.474
12.176,-48.155,-3.508,1.784,2.47
12.174,-48.162,-3.36,1.846,2.472
12.172,-48.169,-3.73,1.377,2.475
12.145,-48.177,-3.934,1.71,2.473
12.137,-48.184,-3.382,2.041,2.47
12.136,-48.196,-2.888,1.496,2.473
12.13,-48.211,-3.757,1.527,2.472
12.109,-48.216,-3.934,1.864,2.472
12.096,-48.22,-3.694,1.687,2.472
12.089,-48.236,-3.585,1.681,2.473
12.079,-48.246,-3.537,1.671,2.472
12.066,-48.249,-3.528,1.766,2.473
12.059,-48.252,-3.572,1.683,2.473
12.058,-48.258,-3.5,1.722,2.472
12.055,-48.264,-3.423,1.791,2.475
12.051,-48.27,-3.478,1.577,2.474
12.041,-48.278,-3.079,1.835,2.473
12.035,-48.289,-2.992,1.752,2.475
12.031,-48.289,-3.008,1.63,2.474
12.027,-48.288,-2.982,1.825,2.474
12.024,-48.291,-2.961,1.763,2.475
12.02,-48.292,-2.956,1.735,2.475
12.018,-48.293,-2.925,1.813,2.475
12.016,-48.296,-2.904,1.806,2.477
12.016,-48.298,-2.863,1.877,2.476
12.012,-48.302,-2.598,2.031,2.477
12.008,-48.308,-2.345,1.821,2.477
12.001,-48.318,-2.262,1.963,2.477
11.988,-48.326,-2.168,1.977,2.479
11.981,-48.33,-2.142,1.981,2.477
11.973,-48.336,-1.951,2.124,2.48
11.962,-48.346,-1.857,1.889,2.481
11.956,-48.352,-1.703,2.151,2.481
11.947,-48.359,-1.138,2.19,2.484
11.942,-48.375,-0.765,1.99,2.482
11.936,-48.381,-0.466,2.35,2.484
11.929,-48.387,-0.097,1.947,2.481
11.924,-48.399,-0.138,2.248,2.482
11.912,-48.411,-0.254,1.903,2.483
11.899,-48.416,-0.173,2.064,2.486
11.881,-48.433,0.157,2.02,2.486
11.854,-48.456,1.038,2.113,2.482
11.832,-48.472,1.631,2.015,2.486
11.816,-48.484,1.35,1.525,2.486
11.803,-48.494,1.004,2.174,2.484
11.771,-48.499,1.444,2.081,2.485
11.75,-48.518,1.62,1.755,2.487
11.707,-48.541,1.741,1.808,2.483
11.678,-48.554,2.02,1.314,2.488
11.66,-48.565,1.902,1.414,2.487
11.638,-48.582,1.809,2.167,2.487
11.591,-48.616,2.552,1.858,2.487
11.575,-48.631,2.508,1.791,2.484
11.555,-48.643,2.512,1.821,2.485
11.547,-48.658,1.841,1.642,2.487
11.533,-48.663,1.906,1.802,2.488
11.523,-48.67,2.281,1.86,2.488
11.52,-48.681,2.691,1.881,2.486
11.514,-48.696,2.951,1.892,2.487
11.505,-48.705,2.517,1.77,2.49
11.488,-48.715,2.603,1.808,2.491
11.466,-48.732,3.4,1.982,2.489
11.441,-48.758,3.881,1.936,2.491
11.428,-48.764,3.61,1.824,2.49
11.414,-48.769,3.577,2.136,2.492
11.406,-48.782,3.747,1.888,2.491
11.4,-48.788,4.015,2.099,2.492
11.396,-48.792,4.181,1.94,2.49
11.396,-48.801,4.19,2.06,2.492
11.396,-48.802,4.119,1.797,2.495
11.39,-48.804,4.094,1.999,2.49
11.385,-48.811,4.56,2.383,2.492
11.393,-48.819,4.07,1.786,2.492
11.369,-48.827,4.344,1.971,2.491
11.369,-48.837,4.456,1.973,2.491
11.366,-48.842,4.338,1.807,2.492
11.359,-48.841,4.283,1.868,2.49
11.357,-48.846,4.433,1.89,2.489
11.354,-48.853,4.088,1.715,2.491
11.344,-48.856,3.952,1.653,2.489
11.333,-48.862,4.213,1.857,2.488
11.324,-48.867,4.063,1.604,2.489
11.315,-48.868,3.722,1.548,2.489
11.295,-48.871,3.677,1.683,2.488
11.28,-48.878,3.867,1.679,2.486
11.267,-48.882,3.755,1.588,2.489
11.26,-48.881,3.468,1.324,2.486
11.251,-48.888,3.285,1.845,2.491
11.237,-48.887,3.298,1.407,2.487
11.228,-48.893,3.458,2.056,2.485
11.217,-48.897,3.391,1.567,2.487
11.207,-48.893,2.614,1.608,2.489
11.193,-48.891,2.614,1.737,2.486
11.182,-48.897,3.051,1.943,2.487
11.183,-48.9,2.788,1.653,2.486
11.174,-48.899,2.658,1.765,2.484
11.166,-48.9,2.615,1.638,2.486
11.16,-48.904,1.974,1.561,2.485
11.133,-48.904,2.239,1.756,2.486
11.124,-48.908,1.978,1.67,2.484
11.116,-48.908,2.251,1.809,2.485
11.119,-48.911,2.038,1.647,2.486
11.118,-48.913,1.882,1.744,2.483
11.112,-48.915,1.947,1.849,2.483
11.111,-48.915,1.812,1.554,2.483
11.111,-48.924,1.297,1.66,2.484
11.109,-48.926,1.344,1.674,2.482
11.111,-48.929,1.403,1.708,2.484
11.112,-48.928,1.322,1.471,2.483
11.114,-48.929,1.255,1.744,2.482
11.118,-48.929,1.357,1.668,2.482
11.121,-48.93,1.272,1.538,2.48
11.12,-48.932,1.189,1.581,2.481
11.123,-48.933,0.927,1.374,2.481
11.126,-48.937,0.623,1.59,2.481
11.124,-48.936,0.673,1.479,2.479
11.124,-48.936,0.662,1.517,2.48
11.125,-48.935,0.462,1.334,2.48
11.123,-48.934,0.416,1.516,2.481
11.124,-48.936,0.4,1.479,2.48
11.123,-48.937,0.538,1.595,2.479
11.125,-48.939,0.352,1.503,2.48
11.124,-48.94,0.199,1.483,2.478
11.125,-48.938,0.186,1.53,2.477
11.127,-48.939,-0.087,1.371,2.474
11.127,-48.939,-0.264,1.327,2.478
11.124,-48.936,-0.996,1.167,2.476
11.105,-48.939,-0.935,1.647,2.477
11.109,-48.944,-0.857,1.252,2.477
11.115,-48.949,-1.214,1.514,2.477
11.108,-48.95,-1.052,1.596,2.478
11.11,-48.955,-1.078,1.555,2.477
11.11,-48.955,-1.061,1.696,2.475
11.108,-48.956,-1.151,1.552,2.475
11.109,-48.959,-1.475,1.416,2.473
11.105,-48.966,-1.945,1.486,2.475
11.105,-48.966,-2.117,1.332,2.473
11.102,-48.968,-2.138,1.542,2.474
11.1,-48.97,-2.24,1.356,2.475
11.094,-48.973,-2.352,1.489,2.475
11.093,-48.978,-2.182,1.576,2.476
11.093,-48.98,-2.17,1.571,2.474
11.093,-48.982,-2.168,1.671,2.474
11.093,-48.985,-2.333,1.468,2.472
11.085,-48.988,-2.514,1.493,2.471
11.079,-48.99,-2.667,1.364,2.473
11.077,-48.993,-2.982,1.352,2.472
11.069,-48.995,-3.043,1.552,2.472
11.063,-48.998,-2.977,1.441,2.475
11.063,-49,-3.039,1.448,2.471
11.059,-49.003,-2.692,1.663,2.476
11.063,-49.008,-3.132,1.381,2.473
11.051,-49.013,-2.956,1.993,2.472
11.04,-49.012,-2.517,1.458,2.473
11.043,-49.021,-3.14,1.519,2.47
11.025,-49.02,-3.052,1.584,2.472
11.024,-49.024,-3.338,1.283,2.472
11.02,-49.031,-3.53,1.674,2.473
11.005,-49.033,-3.279,1.447,2.472
11.002,-49.036,-3.323,1.638,2.471
10.998,-49.041,-3.348,1.475,2.474
10.987,-49.049,-3.609,1.451,2.474
10.973,-49.06,-3.403,1.778,2.472
10.96,-49.073,-2.965,1.67,2.472
10.957,-49.081,-2.988,1.388,2.474
10.949,-49.09,-3.318,1.57,2.471
10.934,-49.096,-3.125,1.696,2.472
10.923,-49.108,-3.419,1.405,2.471
10.903,-49.114,-3.429,1.608,2.473
10.897,-49.115,-3.428,1.45,2.473
10.891,-49.124,-3.363,1.734,2.471
10.885,-49.129,-3.241,1.574,2.471
10.884,-49.13,-3.41,1.37,2.473
10.882,-49.134,-3.634,1.546,2.472
10.861,-49.141,-3.299,1.629,2.47
10.845,-49.153,-3.358,1.502,2.473
10.821,-49.157,-3.721,1.442,2.473
10.804,-49.159,-3.676,1.722,2.471
10.783,-49.17,-3.131,1.607,2.473
10.771,-49.18,-3.426,1.473,2.473
10.763,-49.179,-3.514,1.67,2.47
10.763,-49.181,-3.307,1.678,2.471
10.771,-49.182,-3.401,1.324,2.472
10.776,-49.18,-3.556,1.483,2.469
10.773,-49.181,-3.455,1.624,2.475
10.778,-49.183,-3.966,1.311,2.471
10.77,-49.187,-3.756,2.047,2.471
10.766,-49.185,-3.303,1.3,2.474
10.776,-49.191,-3.648,1.584,2.469
10.771,-49.191,-3.352,1.858,2.471
10.777,-49.189,-3.408,1.16,2.47
10.777,-49.184,-3.865,1.522,2.474
10.776,-49.183,-3.824,1.463,2.471
10.776,-49.184,-3.653,1.856,2.471
10.779,-49.18,-3.563,1.413,2.474
10.783,-49.179,-3.734,1.57,2.473
10.779,-49.177,-3.106,1.74,2.473
10.789,-49.18,-2.994,1.609,2.47
10.793,-49.181,-3.158,1.671,2.472
10.792,-49.176,-3.468,1.337,2.468
10.79,-49.176,-3.814,1.72,2.471
10.789,-49.172,-4.176,1.285,2.472
10.782,-49.171,-3.993,1.625,2.47
10.787,-49.173,-3.558,1.557,2.472
10.798,-49.169,-4.05,1.441,2.472
10.794,-49.168,-3.709,1.613,2.47
10.796,-49.171,-3.572,1.584,2.473
10.798,-49.169,-3.768,1.401,2.472
10.793,-49.167,-3.792,1.847,2.471
10.791,-49.165,-3.582,1.606,2.471
10.8,-49.166,-3.823,1.499,2.471
10.797,-49.161,-3.785,1.554,2.472
10.798,-49.162,-3.79,1.59,2.472
10.798,-49.163,-3.707,1.621,2.47
10.797,-49.165,-3.589,1.678,2.474
10.799,-49.165,-3.958,1.438,2.472
10.792,-49.165,-3.805,1.756,2.473
10.798,-49.167,-3.4,1.64,2.471
10.799,-49.166,-3.377,1.658,2.47
10.797,-49.165,-3.636,1.495,2.471
10.797,-49.166,-4.081,1.472,2.472
10.792,-49.174,-3.687,1.526,2.472
10.792,-49.184,-3.579,1.613,2.471
10.791,-49.189,-3.57,1.567,2.472
10.791,-49.192,-3.82,1.497,2.472
10.784,-49.192,-3.553,1.601,2.471
10.77,-49.199,-3.452,1.56,2.473
10.755,-49.206,-3.539,1.471,2.471
10.743,-49.215,-3.399,1.722,2.471
10.732,-49.226,-3.577,1.455,2.471
10.727,-49.226,-3.594,1.506,2.471
10.716,-49.226,-3.61,1.428,2.47
10.716,-49.224,-3.564,1.465,2.472
10.715,-49.224,-3.635,1.396,2.472
10.712,-49.226,-3.515,1.508,2.473
10.71,-49.23,-3.475,1.581,2.471
10.707,-49.233,-3.372,1.626,2.471
10.708,-49.229,-3.748,1.481,2.471
10.708,-49.226,-3.726,1.453,2.472
10.71,-49.226,-3.715,1.508,2.47
10.71,-49.226,-3.656,1.582,2.47
10.715,-49.224,-3.818,1.364,2.472
10.715,-49.221,-3.915,1.468,2.473
10.714,-49.222,-3.695,1.589,2.473
10.715,-49.223,-3.53,1.67,2.47
10.72,-49.219,-3.404,1.674,2.47
10.732,-49.21,-3.986,1.48,2.473
10.731,-49.204,-4.02,1.474,2.469
10.729,-49.203,-3.666,1.78,2.47
10.75,-49.194,-4.065,1.424,2.472
10.752,-49.179,-4.218,1.543,2.472
10.76,-49.177,-3.88,1.658,2.472
10.771,-49.171,-3.721,1.711,2.471
10.78,-49.165,-3.856,1.732,2.474
10.793,-49.156,-4.082,1.651,2.471
10.808,-49.152,-4.081,2.078,2.471
10.813,-49.148,-4.014,1.604,2.469
10.825,-49.151,-4.219,1.755,2.472
10.826,-49.148,-4.355,1.476,2.471
10.818,-49.148,-4.232,1.785,2.471
10.821,-49.148,-4.232,1.709,2.472
10.821,-49.148,-4.32,1.692,2.472
10.821,-49.148,-4.261,1.849,2.475
10.823,-49.149,-4.108,1.798,2.475
10.828,-49.154,-3.355,1.912,2.472
10.837,-49.156,-3.202,1.884,2.469
10.846,-49.155,-3.521,1.691,2.474
10.85,-49.146,-4.688,1.58,2.465
10.837,-49.143,-4.284,2.075,2.47
10.857,-49.134,-5.012,1.18,2.47
10.861,-49.128,-5.655,2.012,2.475
10.85,-49.123,-4.708,1.636,2.475
10.862,-49.135,-4.158,2.158,2.473
10.875,-49.137,-3.252,1.836,2.475
10.89,-49.135,-3.127,1.688,2.472
10.899,-49.131,-3.423,1.942,2.472
10.898,-49.129,-3.505,1.634,2.469
10.897,-49.13,-3.75,1.738,2.47
10.896,-49.118,-4.255,1.442,2.47
10.895,-49.111,-4.662,1.749,2.469
10.897,-49.109,-4.412,1.645,2.471
10.902,-49.111,-4.598,1.484,2.473
10.903,-49.111,-4.61,1.853,2.473
10.896,-49.111,-4.101,1.83,2.472
10.908,-49.119,-3.689,1.784,2.472
10.91,-49.113,-3.857,1.782,2.474
10.912,-49.111,-3.858,1.727,2.471
10.913,-49.111,-3.748,1.896,2.473
10.925,-49.099,-4.252,1.663,2.47
10.927,-49.093,-3.947,1.823,2.47
10.946,-49.089,-4.196,1.583,2.47
10.95,-49.081,-4.457,1.57,2.471
10.953,-49.077,-4.401,1.621,2.472
10.958,-49.077,-4.338,1.641,2.473
10.959,-49.076,-4.217,1.788,2.475
10.969,-49.075,-3.87,1.824,2.473
10.977,-49.074,-3.599,2.001,2.472
10.991,-49.071,-3.509,1.768,2.468
11.003,-49.063,-3.747,1.74,2.471
11.016,-49.05,-4.63,1.524,2.473
11.012,-49.04,-4.195,1.633,2.471
11.02,-49.043,-3.847,1.851,2.474
11.03,-49.042,-3.826,1.549,2.471
11.038,-49.041,-3.873,2.023,2.474
11.049,-49.038,-3.98,1.689,2.474
11.05,-49.033,-3.717,1.869,2.472
11.055,-49.029,-3.535,1.835,2.47
11.06,-49.027,-3.744,1.752,2.473
11.067,-49.022,-4.371,1.565,2.474
11.06,-49.021,-4.007,1.829,2.473
11.064,-49.022,-3.245,1.833,2.474
11.079,-49.02,-3.415,1.746,2.472
11.084,-49.013,-3.546,1.844,2.474
11.088,-49.015,-3.598,1.681,2.47
11.089,-49.015,-3.476,1.941,2.471
11.091,-49.013,-3.944,1.554,2.47
11.087,-49.005,-4.248,1.629,2.474
11.09,-49.007,-4.241,1.505,2.473
11.093,-49.007,-3.458,1.756,2.474
11.11,-49.005,-3.507,1.775,2.475
11.108,-49.002,-3.428,1.859,2.473
11.109,-49,-3.296,1.921,2.47
11.115,-48.999,-3.326,1.671,2.471
11.119,-48.995,-3.725,1.457,2.471
11.122,-48.979,-4.049,1.682,2.473
11.124,-48.978,-4.033,1.55,2.474
11.134,-48.975,-3.794,1.767,2.473
11.139,-48.971,-3.538,1.862,2.473
11.151,-48.969,-3.557,1.808,2.473
11.162,-48.962,-3.676,1.786,2.471
11.168,-48.957,-3.621,1.839,2.473
11.171,-48.953,-3.772,1.535,2.472
11.176,-48.95,-3.843,1.917,2.473
11.178,-48.945,-3.719,1.729,2.472
11.181,-48.945,-3.771,1.792,2.472
11.188,-48.94,-3.813,1.764,2.474
11.193,-48.935,-3.867,1.783,2.473
11.196,-48.934,-3.782,1.983,2.473
11.201,-48.929,-3.75,1.766,2.474
11.212,-48.921,-3.88,1.858,2.472
11.218,-48.918,-3.796,1.947,2.475
11.222,-48.916,-3.814,1.746,2.473
11.23,-48.915,-3.683,2.083,2.473
11.24,-48.911,-3.657,1.788,2.473
11.252,-48.9,-3.747,1.893,2.476
11.259,-48.896,-3.744,1.901,2.474
11.264,-48.893,-3.552,2.193,2.473
11.277,-48.886,-3.476,1.879,2.474
11.282,-48.879,-3.615,1.854,2.475
11.283,-48.875,-3.559,1.984,2.475
11.286,-48.874,-3.447,1.978,2.474
11.292,-48.872,-3.278,2.032,2.474
11.299,-48.868,-3.529,1.864,2.475
11.298,-48.865,-3.479,1.899,2.475
11.3,-48.865,-3.349,1.987,2.478
11.304,-48.863,-3.259,1.952,2.476
11.303,-48.861,-2.926,2.271,2.475
11.315,-48.858,-2.673,1.903,2.476
11.331,-48.853,-3.1,1.907,2.476
11.33,-48.849,-3.056,2.004,2.476
11.332,-48.847,-2.955,2.005,2.475
11.339,-48.846,-2.917,1.964,2.478
11.338,-48.845,-2.979,1.921,2.477
11.339,-48.844,-2.618,2.187,2.476
11.348,-48.841,-2.349,1.985,2.475
11.357,-48.835,-2.6,1.989,2.476
11.356,-48.833,-2.686,1.857,2.477
11.357,-48.835,-2.685,1.941,2.479
11.357,-48.833,-2.472,1.991,2.476
11.358,-48.833,-2.1,2.157,2.477
11.363,-48.83,-2.113,1.804,2.478
11.373,-48.828,-2.367,2.062,2.478
11.371,-48.825,-2.217,2.095,2.477
11.373,-48.824,-2.071,2.089,2.477
11.379,-48.822,-2.331,1.899,2.478
11.375,-48.82,-2.382,1.903,2.479
11.376,-48.821,-2.235,2.123,2.48
11.378,-48.819,-1.893,2.122,2.477
11.384,-48.817,-1.585,2.158,2.478
11.403,-48.811,-2.033,1.899,2.478
11.402,-48.803,-2.103,1.974,2.477
11.405,-48.802,-2.014,1.979,2.479
11.409,-48.801,-2.082,1.823,2.478
11.407,-48.798,-2.022,2.149,2.48
11.412,-48.792,-1.766,1.959,2.478
11.419,-48.788,-1.623,2.094,2.478
11.426,-48.78,-1.582,1.935,2.479
11.431,-48.775,-1.741,1.933,2.481
11.434,-48.772,-1.681,2.008,2.481
11.435,-48.771,-1.419,2.191,2.478
11.442,-48.763,-0.842,2.017,2.48
11.458,-48.752,-1.394,1.903,2.479
11.456,-48.743,-1.203,1.991,2.483
11.464,-48.74,-1.115,1.897,2.481
11.465,-48.735,-0.617,2.175,2.482
11.487,-48.728,-0.627,2.007,2.481
11.488,-48.723,-0.357,2.094,2.481
11.495,-48.722,-0.48,1.937,2.483
11.496,-48.718,-0.61,1.953,2.48
11.493,-48.716,-0.427,2.155,2.484
11.503,-48.71,-0.503,1.879,2.482
11.506,-48.708,-0.42,2.36,2.484
11.51,-48.698,-0.159,1.932,2.483
11.52,-48.693,0.357,2.137,2.482
11.532,-48.69,0.073,2.037,2.48
11.53,-48.686,-0.022,1.918,2.485
11.532,-48.681,-0.146,1.765,2.483
11.529,-48.678,0.2,2.324,2.485
11.536,-48.672,0.644,1.911,2.486
11.55,-48.667,0.696,2.181,2.486
11.55,-48.665,0.849,2.276,2.485
11.556,-48.663,1.013,2.24,2.487
11.562,-48.658,0.927,2.15,2.485
11.564,-48.651,1.171,2.259,2.482
11.574,-48.644,1.04,2.101,2.487
11.579,-48.636,0.404,1.9,2.486
11.578,-48.627,0.998,2.297,2.485
11.602,-48.623,1.455,2.043,2.488
11.612,-48.613,1.29,2.022,2.488
11.617,-48.605,1.707,2.311,2.487
11.632,-48.604,1.903,2.196,2.488
11.637,-48.6,1.84,2.158,2.486
11.637,-48.597,1.779,2.204,2.486
11.642,-48.594,1.569,2.05,2.486
11.641,-48.592,1.595,2.079,2.486
11.64,-48.589,1.605,2.081,2.486
11.642,-48.587,1.56,2.031,2.488
11.644,-48.583,1.503,2.009,2.487
11.647,-48.582,1.634,2.262,2.489
11.66,-48.578,1.816,2.132,2.489
11.664,-48.576,1.924,2.286,2.489
11.665,-48.573,2.14,2.307,2.486
11.675,-48.569,2.267,2.227,2.488
11.684,-48.554,1.477,2.047,2.487
11.682,-48.551,1.763,2.306,2.488
11.687,-48.551,2.034,1.946,2.49
11.693,-48.551,2.018,2.22,2.488
11.693,-48.55,2.636,2.308,2.49
11.709,-48.552,2.528,2.054,2.488
11.707,-48.546,2.568,2.226,2.489
11.711,-48.548,2.471,2.061,2.487
11.711,-48.543,2.642,2.176,2.49
11.717,-48.538,2.281,2.035,2.491
11.715,-48.533,2.457,2.298,2.491
11.717,-48.532,2.841,2.278,2.491
11.728,-48.532,3.246,2.244,2.491
11.737,-48.528,3.173,2.192,2.49
11.741,-48.523,3.132,2.199,2.489
11.741,-48.523,3.105,2.18,2.488
11.742,-48.519,3.049,2.027,2.49
11.743,-48.513,2.878,1.856,2.492
11.744,-48.507,2.89,2.137,2.49
11.751,-48.505,3.623,2.244,2.492
11.768,-48.503,3.372,2.117,2.491
11.766,-48.501,3.301,2.288,2.493
11.766,-48.499,3.446,2.198,2.492
11.771,-48.501,3.635,2.316,2.49
11.775,-48.495,3.604,2.223,2.49
11.777,-48.492,3.424,2.088,2.491
11.778,-48.49,3.413,2.078,2.492
11.779,-48.488,3.482,2.107,2.491
11.785,-48.484,3.85,2.222,2.492
11.795,-48.482,3.816,2.089,2.492
11.797,-48.481,3.777,2.22,2.493
11.798,-48.478,3.851,2.19,2.492
11.803,-48.476,4.032,2.31,2.489
11.81,-48.472,4.137,2.047,2.492
11.816,-48.466,3.73,1.846,2.492
11.817,-48.454,3.819,2.156,2.491
11.827,-48.454,3.969,2.051,2.495
11.835,-48.449,3.746,2.015,2.49
11.835,-48.446,3.99,2.604,2.491
11.847,-48.446,3.963,1.844,2.492
11.855,-48.438,3.615,2.077,2.49
11.848,-48.436,3.925,2.192,2.491
11.857,-48.44,3.723,1.948,2.489
11.856,-48.436,3.694,2.087,2.488
11.855,-48.432,3.602,1.787,2.491
11.858,-48.429,3.108,1.828,2.489
11.855,-48.426,3.459,2.152,2.489
11.858,-48.426,3.705,1.744,2.492
11.865,-48.426,3.373,1.931,2.491
11.862,-48.423,3.612,2.288,2.488
11.872,-48.425,3.912,2.044,2.49
11.875,-48.423,3.815,1.636,2.488
11.876,-48.419,3.594,2.022,2.486
11.875,-48.414,3.42,1.385,2.49
11.879,-48.41,2.591,1.731,2.489
11.873,-48.403,2.711,2.203,2.489
11.873,-48.396,3.433,1.822,2.489
11.881,-48.395,3.299,1.853,2.488
11.88,-48.39,3.291,1.932,2.489
11.88,-48.388,3.195,1.768,2.487
11.881,-48.389,3.104,1.977,2.488
11.882,-48.388,3.067,1.67,2.489
11.883,-48.383,2.873,1.834,2.49
11.883,-48.378,3.057,1.978,2.489
11.887,-48.378,3.286,2.018,2.489
11.892,-48.376,3.199,1.898,2.487
11.892,-48.373,3.087,2.01,2.489
11.893,-48.369,2.963,1.768,2.489
11.896,-48.366,2.908,2.02,2.488
11.901,-48.363,3.04,1.976,2.488
11.905,-48.361,2.869,1.846,2.487
11.907,-48.354,2.755,2,2.484
11.911,-48.35,2.684,1.75,2.486
11.918,-48.345,2.141,1.626,2.483
11.919,-48.336,1.752,1.961,2.488
11.925,-48.324,1.357,1.63,2.488
11.929,-48.319,1.854,2.127,2.487
11.934,-48.318,2.525,1.926,2.49
11.947,-48.321,2.562,1.851,2.491
11.962,-48.316,2.73,2.223,2.488
11.969,-48.318,3.01,2.361,2.485
11.982,-48.32,2.973,1.918,2.485
11.992,-48.315,2.449,1.695,2.486
11.994,-48.307,1.633,1.974,2.482
11.992,-48.301,1.595,1.952,2.484
11.997,-48.302,1.516,1.472,2.484
12.001,-48.294,1.304,1.795,2.487
12.004,-48.292,1.367,1.846,2.487
12.014,-48.293,1.978,2.075,2.484
12.023,-48.294,2.2,2.047,2.483
12.034,-48.293,1.751,1.713,2.484
12.04,-48.283,1.038,1.88,2.482
12.043,-48.278,0.895,1.98,2.483
12.046,-48.275,0.927,1.689,2.483
12.053,-48.274,0.89,1.726,2.485
12.053,-48.271,0.953,1.82,2.483
12.054,-48.266,1.126,2.066,2.484
12.077,-48.263,0.973,1.797,2.484
12.077,-48.259,1.125,1.907,2.484
12.08,-48.261,1.162,1.819,2.479
12.085,-48.26,1.115,1.833,2.479
12.091,-48.248,-0.095,1.624,2.478
12.086,-48.233,-0.708,1.712,2.481
12.087,-48.227,-0.681,1.624,2.482
12.092,-48.226,-0.313,1.813,2.479
12.097,-48.223,0.107,1.884,2.48
12.104,-48.221,0.002,1.522,2.482
12.109,-48.216,-0.475,1.852,2.476
12.115,-48.215,-0.003,1.87,2.475
12.122,-48.212,-0.6,1.34,2.476
12.119,-48.194,-1.948,1.667,2.477
12.121,-48.185,-1.788,1.644,2.479
12.125,-48.185,-1.589,1.667,2.478
12.125,-48.177,-1.278,1.913,2.476
12.133,-48.177,-1.346,1.786,2.478
12.136,-48.175,-1.576,1.655,2.475
12.136,-48.173,-1.638,1.894,2.475
12.135,-48.169,-1.82,1.462,2.473
12.135,-48.164,-2.09,1.648,2.476
12.136,-48.163,-2.136,1.332,2.473
12.138,-48.162,-2.172,1.804,2.474
12.143,-48.158,-2.448,1.489,2.475
12.143,-48.15,-2.638,1.67,2.476
12.145,-48.149,-2.58,1.694,2.475
12.151,-48.148,-2.391,1.801,2.476
12.161,-48.144,-2.442,1.801,2.474
12.164,-48.141,-2.472,1.533,2.474
12.168,-48.139,-2.669,1.627,2.474
12.173,-48.136,-2.944,1.699,2.475
12.178,-48.131,-2.894,1.758,2.474
12.188,-48.13,-2.81,1.793,2.475
12.197,-48.125,-2.881,1.76,2.472
12.199,-48.123,-2.89,1.855,2.472
12.205,-48.119,-3.19,1.569,2.473
12.211,-48.115,-3.574,1.716,2.474
12.215,-48.109,-3.554,1.738,2.472
12.229,-48.108,-3.314,1.816,2.473
12.236,-48.105,-3.437,1.617,2.474
12.242,-48.1,-3.637,1.777,2.473
12.251,-48.094,-3.41,1.875,2.474
12.26,-48.092,-3.408,1.691,2.473
12.269,-48.088,-3.515,1.885,2.474
12.276,-48.081,-3.552,1.767,2.473
12.285,-48.078,-3.586,1.878,2.474
12.293,-48.076,-3.548,1.725,2.473
12.298,-48.071,-3.535,1.862,2.472
12.301,-48.069,-3.523,1.835,2.471
12.308,-48.059,-3.843,1.699,2.472
12.314,-48.046,-3.979,1.671,2.472
12.324,-48.022,-3.993,1.715,2.472
12.335,-48.013,-3.924,1.769,2.474
12.338,-48.009,-3.88,1.775,2.474
12.34,-48.003,-3.679,1.9,2.472
12.346,-47.998,-3.511,1.882,2.473
12.354,-47.994,-3.637,1.738,2.471
12.359,-47.986,-3.641,1.835,2.472
12.364,-47.982,-3.808,1.596,2.471
12.371,-47.974,-3.893,1.786,2.472
12.375,-47.97,-3.988,1.592,2.473
12.383,-47.964,-4.065,1.854,2.472
12.402,-47.957,-3.788,1.876,2.472
12.412,-47.952,-3.881,1.814,2.475
12.419,-47.944,-3.977,1.792,2.473
12.423,-47.938,-3.7,2.084,2.471
12.431,-47.934,-3.564,1.809,2.472
12.437,-47.928,-4.076,1.659,2.472
12.438,-47.917,-4.261,1.881,2.474
12.443,-47.918,-4.139,1.847,2.472
12.457,-47.913,-3.767,1.96,2.473
12.46,-47.91,-3.703,1.744,2.473
12.47,-47.907,-3.827,1.889,2.471
12.474,-47.904,-3.83,1.87,2.472
12.486,-47.901,-4.077,1.747,2.47
12.49,-47.897,-3.997,1.761,2.472
12.497,-47.894,-4.193,1.511,2.469
12.504,-47.884,-4.266,1.864,2.475
12.512,-47.875,-4.222,1.469,2.471
12.522,-47.866,-3.858,2.073,2.473
12.534,-47.864,-3.765,1.632,2.474
12.542,-47.857,-3.895,1.922,2.471
12.541,-47.854,-3.675,1.91,2.47
12.545,-47.856,-3.732,1.607,2.472
12.553,-47.847,-4.429,1.655,2.469
12.551,-47.838,-4.217,1.414,2.472
12.562,-47.836,-4.509,1.586,2.472
12.561,-47.826,-4.331,1.89,2.472
12.563,-47.825,-4.103,1.807,2.474
12.57,-47.826,-4.089,1.858,2.472
12.573,-47.818,-3.833,1.979,2.471
12.578,-47.819,-3.865,1.835,2.472
12.58,-47.819,-3.945,1.62,2.471
12.584,-47.815,-4.068,1.9,2.474
12.589,-47.812,-4.312,1.728,2.47
12.594,-47.807,-4.156,2.119,2.473
12.609,-47.803,-4.535,1.706,2.471
12.612,-47.789,-4.244,2.038,2.473
12.616,-47.787,-3.96,1.651,2.47
12.644,-47.781,-3.838,1.952,2.472
12.657,-47.778,-4.067,1.606,2.473
12.674,-47.774,-4.199,1.91,2.47
12.693,-47.767,-3.8,1.903,2.474
12.71,-47.767,-4.001,1.537,2.472
12.725,-47.755,-3.969,2.002,2.471
12.735,-47.754,-3.862,1.789,2.473
12.746,-47.751,-4.08,1.763,2.471
12.751,-47.745,-3.994,1.86,2.472
12.752,-47.744,-4.138,1.861,2.471
12.752,-47.74,-4.054,1.815,2.474
12.754,-47.743,-4.092,1.692,2.474
12.757,-47.739,-3.778,1.948,2.474
12.759,-47.74,-3.594,1.923,2.469
12.765,-47.741,-3.579,1.949,2.473
12.768,-47.738,-4.558,1.557,2.472
12.765,-47.724,-4.383,1.953,2.472
12.769,-47.726,-3.779,1.741,2.472
12.782,-47.728,-3.752,1.734,2.472
12.781,-47.716,-4.139,1.798,2.473
12.783,-47.718,-4.146,1.857,2.475
12.786,-47.718,-3.866,1.887,2.47
12.787,-47.718,-3.687,2.067,2.472
12.787,-47.717,-4.261,1.648,2.471
12.788,-47.702,-4.154,1.869,2.473
12.796,-47.703,-4.29,1.703,2.472
12.796,-47.696,-4.197,2.044,2.471
12.799,-47.699,-4.056,1.895,2.472
12.802,-47.698,-4.235,1.787,2.474
12.804,-47.698,-4.21,1.882,2.471
12.808,-47.699,-4.027,2.047,2.471
12.818,-47.702,-4.39,1.746,2.472
12.818,-47.701,-4.563,1.756,2.474
12.821,-47.695,-4.351,1.822,2.472
12.82,-47.691,-4.142,2.098,2.474
12.822,-47.688,-4.129,1.841,2.47
12.823,-47.682,-4.093,2.071,2.472
12.825,-47.683,-4.647,1.811,2.469
12.825,-47.68,-4.369,1.943,2.472
12.831,-47.687,-4.602,1.621,2.472
12.833,-47.682,-4.661,1.955,2.472
12.832,-47.674,-4.318,1.855,2.475
12.835,-47.675,-4.175,1.924,2.472
12.834,-47.67,-3.985,2.191,2.472
12.835,-47.675,-4.14,1.839,2.471
12.836,-47.675,-4.254,1.836,2.472
12.837,-47.678,-4.263,1.809,2.471
12.837,-47.678,-4.248,1.847,2.474
12.837,-47.678,-4.352,1.705,2.473
12.837,-47.672,-3.927,1.79,2.473
12.839,-47.675,-4.011,1.907,2.471
12.838,-47.674,-3.93,1.992,2.473
12.839,-47.677,-4.038,1.708,2.475
12.839,-47.675,-3.951,1.956,2.472
12.838,-47.677,-3.764,2.182,2.47
12.841,-47.679,-3.991,1.799,2.472
12.839,-47.672,-4.52,1.753,2.471
12.836,-47.666,-4.468,1.907,2.471
12.836,-47.672,-4.43,1.741,2.474
12.835,-47.671,-4.434,1.812,2.47
12.835,-47.671,-4.02,2.086,2.472
12.842,-47.677,-4.252,1.695,2.472
12.844,-47.675,-4.464,1.977,2.469
12.84,-47.671,-4.27,1.895,2.471
12.839,-47.678,-4.452,1.585,2.471
12.84,-47.676,-4.5,1.84,2.473
12.839,-47.673,-4.287,1.75,2.472
12.84,-47.674,-4.169,1.915,2.472
12.84,-47.673,-4.073,1.896,2.472
12.84,-47.675,-4.19,1.857,2.471
12.84,-47.673,-4.158,1.872,2.474
12.841,-47.674,-4.283,1.783,2.472
12.841,-47.671,-3.738,1.969,2.471
12.841,-47.67,-4.049,1.879,2.472
12.841,-47.668,-4.282,1.714,2.473
12.841,-47.67,-4.099,1.826,2.47
12.841,-47.669,-4,1.956,2.472
12.842,-47.667,-4.514,1.673,2.472
12.839,-47.662,-4.389,1.881,2.471
12.841,-47.667,-4.111,1.798,2.474
12.841,-47.665,-4.283,1.709,2.472
12.84,-47.664,-3.71,1.999,2.473
12.844,-47.672,-3.431,1.567,2.472
15.2,-48.829,50.996,-0.026,2.472
15.217,-48.831,51.224,-0.003,2.474
15.217,-48.832,51.308,-0.006,2.473
15.217,-48.83,51.406,-0.009,2.473
15.217,-48.83,51.525,-0.013,2.472
15.215,-48.83,51.644,-0.013,2.472
15.213,-48.829,51.808,-0.018,2.471
15.207,-48.824,52.174,-0.016,2.472
15.209,-48.817,52.273,-0.012,2.472
15.211,-48.808,52.443,-0.018,2.47
15.205,-48.81,52.635,-0.018,2.471
15.195,-48.812,52.891,-0.013,2.474
15.196,-48.811,52.955,-0.002,2.473
15.196,-48.808,52.95,-0.003,2.473
15.198,-48.808,52.968,-0.005,2.47
15.2,-48.809,53.018,-0.008,2.473
15.203,-48.811,53.152,-0.013,2.47
15.204,-48.812,53.266,0,2.471
15.206,-48.811,53.266,0,2.472
15.21,-48.81,53.266,0,2.473
15.213,-48.81,53.295,-0.003,2.473
15.217,-48.811,53.4,-0.011,2.473
15.219,-48.805,53.63,-0.014,2.473
15.219,-48.795,53.786,-0.015,2.474
15.218,-48.781,53.904,-0.011,2.471
15.215,-48.759,54.033,-0.014,2.475
15.209,-48.732,54.223,-0.026,2.473
15.192,-48.679,54.603,-0.029,2.471
15.165,-48.613,54.974,-0.032,2.471
15.134,-48.557,55.38,-0.048,2.47
15.084,-48.443,55.893,-0.026,2.473
15.068,-48.36,56.085,-0.016,2.471
15.036,-48.209,56.234,-0.013,2.472
15,-48.101,56.699,-0.061,2.47
14.902,-47.911,59.134,-0.11,2.475
14.874,-47.846,60.31,-0.1,2.471
14.863,-47.751,61.522,-0.073,2.474
14.866,-47.658,62.677,-0.085,2.473
14.866,-47.607,63.505,-0.068,2.47
14.857,-47.572,63.974,-0.04,2.471
14.846,-47.552,64.094,-0.004,2.474
14.83,-47.55,63.752,0.019,2.471
14.822,-47.586,63.346,0.033,2.472
14.81,-47.631,62.933,0.041,2.471
14.783,-47.688,62.291,0.056,2.473
14.721,-47.739,61.518,0.048,2.473
14.659,-47.747,60.897,0.06,2.473
14.603,-47.739,60.127,0.084,2.47
14.55,-47.724,59.178,0.099,2.471
14.504,-47.713,58.233,0.082,2.471
14.437,-47.719,57.28,0.039,2.47
14.405,-47.728,56.977,0.033,2.473
14.339,-47.729,56.162,0.06,2.474
14.277,-47.737,55.375,0.034,2.472
14.244,-47.736,54.952,0.037,2.473
14.197,-47.72,54.479,0.036,2.472
14.142,-47.706,54.057,0.031,2.471
14.107,-47.696,53.809,0.024,2.472
14.052,-47.671,53.557,0.022,2.471
13.993,-47.632,53.145,0.034,2.474
13.928,-47.593,52.532,0.039,2.473
13.884,-47.572,52.203,0.016,2.472
13.851,-47.559,52.028,0.012,2.471
13.841,-47.556,51.947,0.009,2.472
13.838,-47.55,51.723,0.015,2.473
13.839,-47.551,51.587,0.014,2.471
13.842,-47.551,51.441,0.016,2.472
13.842,-47.553,51.354,0,2.475
13.836,-47.555,51.363,0,2.468
13.827,-47.551,51.298,0.013,2.472
13.811,-47.541,51.085,0.02,2.473
13.799,-47.536,50.925,0.021,2.473
13.766,-47.532,50.605,0.021,2.472
13.743,-47.53,50.263,0.021,2.473
13.752,-47.525,49.965,0.012,2.472
13.764,-47.518,49.808,0.022,2.473
13.775,-47.514,49.683,0.011,2.47
13.787,-47.512,49.507,0.01,2.471
13.797,-47.511,49.393,0.014,2.47
13.808,-47.508,49.246,0.014,2.47
13.818,-47.501,49.066,0.006,2.473
13.819,-47.493,48.976,0.007,2.472
13.82,-47.49,48.915,0.007,2.472
13.822,-47.488,48.867,0.003,2.473
13.822,-47.487,48.775,0.012,2.47
13.822,-47.486,48.521,0.018,2.472
13.824,-47.483,48.31,0.028,2.472
13.838,-47.478,47.934,0.017,2.472
13.844,-47.472,47.651,0.031,2.472
13.85,-47.474,47.261,0.02,2.472
13.858,-47.475,47.076,0.016,2.472
13.869,-47.477,47.006,0,2.472
13.87,-47.477,47.015,0,2.472
13.87,-47.477,46.991,0.001,2.471
13.869,-47.474,46.965,0.004,2.47
13.867,-47.468,46.886,0.008,2.471
13.866,-47.464,46.772,0.009,2.471
13.866,-47.466,46.715,0.002,2.472
13.868,-47.467,46.702,0.001,2.474
13.87,-47.467,46.65,0.007,2.473
13.872,-47.466,46.571,0.013,2.474
13.878,-47.464,46.397,0.015,2.471
13.883,-47.467,46.297,0.004,2.471
13.884,-47.472,46.328,-0.003,2.469
13.884,-47.475,46.341,-0.001,2.47
13.885,-47.478,46.345,-0.002,2.47
13.885,-47.478,46.345,0,2.472
13.885,-47.481,46.365,-0.001,2.474
13.884,-47.482,46.352,0.002,2.472
13.885,-47.484,46.347,0.002,2.474
13.885,-47.484,46.347,0,2.474
13.885,-47.484,46.323,0.005,2.473
13.884,-47.486,46.297,0.003,2.473
13.884,-47.49,46.264,0.006,2.469
13.885,-47.496,46.199,0.006,2.47
13.885,-47.501,46.153,0.001,2.469
13.886,-47.501,46.115,0.007,2.471
13.886,-47.5,46.067,0.006,2.471
13.885,-47.498,45.988,0.005,2.472
13.885,-47.498,45.973,0.004,2.475
13.884,-47.497,45.903,0.011,2.472
13.883,-47.494,45.7,0.023,2.471
13.882,-47.492,45.379,0.018,2.472
13.881,-47.493,45.197,0.019,2.472
13.878,-47.494,44.887,0.026,2.472
13.875,-47.494,44.568,0.03,2.472
13.875,-47.492,44.315,0.033,2.471
13.878,-47.49,43.866,0.039,2.473
13.879,-47.486,43.317,0.043,2.472
13.876,-47.483,42.821,0.05,2.472
13.876,-47.478,42.34,0.057,2.471
13.875,-47.473,41.792,0.063,2.475
13.878,-47.465,40.985,0.072,2.471
13.882,-47.456,39.513,0.066,2.472
13.882,-47.457,39.198,0.063,2.469
13.879,-47.456,38.214,0.069,2.473
13.879,-47.453,37.305,0.083,2.473
13.879,-47.455,36.556,0.085,2.473
13.88,-47.459,35.8,0.071,2.47
13.881,-47.466,34.142,0.088,2.472
13.881,-47.465,33.377,0.1,2.471
13.881,-47.464,32.957,0.106,2.472
13.88,-47.459,31.758,0.109,2.472
13.88,-47.456,30.671,0.099,2.471
13.88,-47.452,29.338,0.083,2.471
13.881,-47.446,27.969,0.057,2.473
13.88,-47.444,27.371,0.059,2.472
13.881,-47.448,26.85,0.053,2.471
13.882,-47.453,25.913,0.052,2.472
13.881,-47.45,25.293,0.062,2.47
13.882,-47.444,24.585,0.066,2.475
13.888,-47.437,23.734,0.057,2.473
13.893,-47.437,22.959,0.051,2.47
13.893,-47.438,22.536,0.064,2.47
13.893,-47.438,22.052,0.067,2.472
13.897,-47.438,21.244,0.076,2.473
13.91,-47.432,19.362,0.079,2.472
13.92,-47.425,18.274,0.056,2.47
13.925,-47.423,18.034,0.052,2.472
13.932,-47.424,17.377,0.043,2.469
13.931,-47.424,16.891,0.049,2.474
13.933,-47.424,16.349,0.039,2.471
13.934,-47.428,15.968,0.041,2.472
13.934,-47.423,15.614,0.041,2.472
13.933,-47.42,15.064,0.039,2.472
13.932,-47.418,14.414,0.048,2.472
13.933,-47.421,13.917,0.047,2.472
13.936,-47.425,13.11,0.05,2.471
13.944,-47.423,12.313,0.049,2.472
13.95,-47.421,11.639,0.06,2.472
13.949,-47.425,11.106,0.048,2.47
13.95,-47.419,10.228,0.055,2.472
13.953,-47.415,9.677,0.053,2.472
13.958,-47.414,9.174,0.05,2.473
13.964,-47.412,8.72,0.052,2.473
13.965,-47.411,7.987,0.064,2.47
13.966,-47.412,7.268,0.058,2.472
13.971,-47.41,6.495,0.037,2.469
13.972,-47.41,5.837,0.048,2.473
13.966,-47.409,5.015,0.065,2.473
13.967,-47.409,3.767,0.065,2.471
13.976,-47.406,2.45,0.078,2.473
13.977,-47.408,1.389,0.078,2.47
13.977,-47.41,0.728,0.193,2.471
13.978,-47.414,0.371,0.277,2.472
13.978,-47.416,0.345,0.269,2.471
13.979,-47.422,0.238,0.316,2.47
13.979,-47.425,-0.095,0.447,2.471
13.979,-47.432,-0.486,0.578,2.471
13.981,-47.438,-0.691,0.646,2.473
13.981,-47.44,-0.834,0.699,2.472
13.981,-47.439,-1.126,0.808,2.472
13.981,-47.439,-1.439,0.926,2.471
13.981,-47.441,-1.778,1.044,2.471
13.981,-47.44,-2.042,1.129,2.474
13.98,-47.437,-2.269,1.215,2.472
13.979,-47.435,-2.766,1.4,2.472
13.979,-47.436,-3.473,1.644,2.471
13.98,-47.438,-3.737,1.729,2.472
13.977,-47.437,-4.065,1.845,2.472
13.969,-47.433,-4.564,2.025,2.472
13.965,-47.432,-5.037,2.208,2.473
13.966,-47.432,-5.531,2.385,2.471
13.978,-47.433,-6.075,2.542,2.47
13.994,-47.427,-6.139,2.538,2.472
13.999,-47.425,-6.143,2.54,2.471
14.004,-47.422,-6.076,2.506,2.472
14.002,-47.422,-5.991,2.48,2.471
13.996,-47.423,-5.843,2.409,2.472
13.984,-47.425,-5.01,2.051,2.473
13.984,-47.428,-3.976,1.64,2.473
13.996,-47.433,-2.048,0.904,2.469
14.018,-47.44,0.038,0.161,2.474
14.018,-47.479,3.37,-0.143,2.473
13.982,-47.51,5.297,-0.179,2.47
13.954,-47.54,7.327,-0.203,2.47
13.936,-47.573,9.445,-0.194,2.469
13.923,-47.602,10.961,-0.169,2.473
13.897,-47.641,13.216,-0.138,2.473
13.881,-47.653,14.41,-0.094,2.472
13.857,-47.664,15.451,-0.065,2.473
13.831,-47.672,15.881,-0.026,2.472
13.813,-47.678,16.219,-0.041,2.474
13.784,-47.696,17.099,-0.086,2.472
13.703,-47.719,19.188,-0.109,2.47
13.619,-47.714,20.38,-0.077,2.472
13.552,-47.707,21.006,-0.073,2.472
13.462,-47.697,21.651,-0.071,2.472
13.346,-47.694,22.293,-0.063,2.473
13.218,-47.696,22.901,-0.063,2.471
13.015,-47.686,23.695,-0.049,2.473
12.881,-47.67,24.207,-0.046,2.472
12.748,-47.652,24.76,-0.049,2.471
12.589,-47.623,25.526,-0.034,2.473
12.501,-47.595,25.715,-0.004,2.47
12.423,-47.564,25.711,-0.003,2.471
12.388,-47.549,25.726,-0.001,2.47
12.354,-47.538,25.887,-0.018,2.471
12.314,-47.523,26.036,-0.006,2.474
12.289,-47.514,26.068,0,2.473
12.266,-47.5,26.051,0.001,2.472
12.257,-47.495,26.056,0,2.471
12.237,-47.485,26.059,-0.002,2.474
12.206,-47.475,26.127,-0.004,2.469
12.177,-47.473,26.12,0.002,2.472
12.145,-47.473,26.096,0.002,2.47
12.102,-47.478,26.133,-0.005,2.472
12.066,-47.48,26.21,-0.005,2.472
12.05,-47.477,26.249,-0.006,2.473
12.029,-47.471,26.291,-0.002,2.471
12.006,-47.461,26.203,0.013,2.472
11.995,-47.455,26.134,0.019,2.473
11.965,-47.447,26.051,-0.006,2.472
11.953,-47.448,26.137,-0.012,2.472
11.941,-47.446,26.242,-0.013,2.471
11.927,-47.439,26.323,-0.007,2.47
11.904,-47.428,26.325,0.005,2.473
11.882,-47.426,26.339,-0.003,2.471
11.864,-47.434,26.523,-0.017,2.472
11.862,-47.436,26.839,-0.033,2.471
11.861,-47.436,27.084,-0.037,2.471
11.832,-47.437,27.689,-0.025,2.472
11.796,-47.433,28.023,-0.021,2.474
11.773,-47.427,28.175,-0.016,2.472
11.75,-47.422,28.31,-0.014,2.471
11.718,-47.424,28.58,-0.025,2.472
11.695,-47.433,28.883,-0.032,2.472
11.669,-47.452,29.27,-0.031,2.471
11.646,-47.466,29.536,-0.017,2.472
11.627,-47.474,29.627,-0.009,2.471
11.6,-47.483,29.687,-0.009,2.473
11.588,-47.495,29.821,-0.018,2.475
11.58,-47.508,29.963,-0.007,2.47
11.564,-47.506,30.031,0,2.473
11.554,-47.494,29.976,0.01,2.472
11.549,-47.486,29.935,0.012,2.472
11.54,-47.459,29.695,0.025,2.47
11.535,-47.431,29.369,0.029,2.472
11.535,-47.411,29.144,0.027,2.47
11.536,-47.396,28.983,0.016,2.473
11.527,-47.382,28.903,-0.002,2.472
11.519,-47.386,28.922,-0.003,2.472
11.514,-47.394,29.02,-0.011,2.471
11.514,-47.403,29.125,-0.012,2.472
11.511,-47.437,29.438,-0.019,2.472
11.508,-47.458,29.627,-0.02,2.474
11.504,-47.482,29.845,-0.01,2.471
11.501,-47.489,29.953,-0.009,2.471
11.492,-47.497,30.12,-0.019,2.471
11.484,-47.506,30.251,-0.02,2.471
11.466,-47.517,30.455,-0.023,2.472
11.445,-47.527,30.69,-0.024,2.473
11.423,-47.533,31.033,-0.033,2.473
11.396,-47.533,31.386,-0.026,2.474
11.37,-47.532,31.657,-0.022,2.471
11.344,-47.533,31.935,-0.028,2.472
11.321,-47.529,32.276,-0.023,2.471
11.307,-47.527,32.502,-0.019,2.472
11.275,-47.519,32.896,-0.015,2.472
11.253,-47.513,32.964,-0.003,2.472
11.222,-47.504,32.95,0.001,2.469
11.193,-47.491,32.86,0.006,2.475
11.171,-47.479,32.778,0.007,2.473
11.149,-47.465,32.69,0.006,2.473
11.126,-47.452,32.609,0.003,2.473
11.105,-47.447,32.579,-0.001,2.47
11.095,-47.455,32.645,-0.007,2.472
11.095,-47.46,32.651,0.002,2.471
11.095,-47.46,32.621,0.002,2.474
11.097,-47.45,32.593,0,2.472
11.098,-47.448,32.586,0.002,2.474
11.096,-47.429,32.439,0.015,2.473
11.091,-47.411,32.278,0.021,2.472
11.074,-47.382,32.046,0.024,2.473
11.062,-47.359,31.872,0.021,2.473
11.037,-47.325,31.621,0.021,2.471
10.996,-47.294,31.451,0.013,2.472
10.929,-47.264,31.308,0.012,2.471
10.844,-47.213,31.011,0.021,2.472
10.786,-47.179,30.813,0.013,2.472
10.733,-47.152,30.651,0.011,2.473
10.677,-47.139,30.203,0.026,2.474
10.663,-47.142,29.995,0.022,2.471
10.661,-47.142,29.753,0.028,2.474
10.661,-47.143,29.554,0.02,2.472
10.662,-47.157,29.62,-0.018,2.47
10.657,-47.177,29.814,-0.013,2.472
10.64,-47.213,30.014,-0.015,2.472
10.625,-47.234,30.156,-0.018,2.473
10.588,-47.267,30.411,-0.017,2.473
10.557,-47.282,30.588,-0.011,2.474
10.536,-47.282,30.667,-0.004,2.472
10.506,-47.274,30.615,0.009,2.471
10.504,-47.275,30.194,0.04,2.472
10.52,-47.283,29.915,0.032,2.474
10.541,-47.288,29.683,0.021,2.472
10.57,-47.286,29.561,-0.002,2.47
10.598,-47.274,29.52,0.006,2.474
10.6,-47.27,29.508,0.005,2.472
10.599,-47.262,29.401,0.012,2.476
10.595,-47.254,29.315,0.011,2.473
10.583,-47.243,29.26,0.003,2.473
10.563,-47.238,29.275,0,2.473
10.548,-47.233,29.231,0.007,2.472
10.546,-47.22,29.104,0.013,2.47
10.549,-47.212,29.014,0.006,2.474
10.551,-47.215,29.012,-0.005,2.473
10.548,-47.222,29.074,-0.004,2.473
10.546,-47.221,29.074,0,2.471
10.541,-47.22,29.074,0,2.474
10.537,-47.219,29.074,0,2.472
10.529,-47.218,29.073,-0.001,2.474
10.519,-47.217,29.064,0.003,2.471
10.515,-47.224,29.127,-0.008,2.472
10.512,-47.234,29.246,-0.013,2.471
10.508,-47.24,29.332,-0.011,2.474
10.502,-47.244,29.373,0.001,2.472
10.495,-47.242,29.373,0,2.472
10.488,-47.242,29.372,-0.001,2.474
10.484,-47.244,29.377,-0.001,2.471
10.479,-47.251,29.432,-0.006,2.472
10.479,-47.255,29.474,-0.004,2.474
10.477,-47.26,29.502,-0.001,2.472
10.476,-47.261,29.448,0.007,2.472
10.476,-47.261,29.426,0.005,2.473
10.471,-47.263,29.371,0.002,2.473
10.467,-47.261,29.312,0.004,2.474
10.463,-47.256,29.254,0.006,2.475
10.449,-47.249,29.084,0,2.474
10.432,-47.243,28.905,0.019,2.472
10.405,-47.243,28.517,0.011,2.474
10.402,-47.242,28.435,0.009,2.471
10.403,-47.237,28.274,0.017,2.473
10.405,-47.234,28.059,0.026,2.473
10.407,-47.234,27.82,0.022,2.473
10.408,-47.234,27.677,0.021,2.474
10.41,-47.232,27.537,0.011,2.472
10.411,-47.226,27.438,0.012,2.472
10.413,-47.219,27.362,0.011,2.472
10.414,-47.214,27.284,0.008,2.475
10.415,-47.217,27.296,-0.006,2.471
10.414,-47.225,27.364,-0.008,2.474
10.414,-47.235,27.431,-0.004,2.474
10.414,-47.241,27.388,0.006,2.473
10.412,-47.25,27.23,0.008,2.469
10.411,-47.257,27.178,0.002,2.474
10.409,-47.265,27.202,-0.004,2.472
10.407,-47.273,27.277,-0.007,2.473
10.406,-47.276,27.236,0.008,2.474
10.405,-47.277,27.107,0.011,2.473
10.405,-47.278,27.016,0.007,2.475
10.404,-47.278,27.008,0,2.472
10.405,-47.278,27.016,0,2.474
10.404,-47.273,26.952,0.006,2.472
10.403,-47.272,26.9,0.002,2.47
10.402,-47.276,26.866,0.001,2.474
10.402,-47.279,26.84,0.003,2.471
10.4,-47.283,26.798,0.005,2.472
10.398,-47.286,26.743,0.008,2.477
10.394,-47.29,26.67,0.007,2.471
10.392,-47.294,26.613,0.003,2.472
10.391,-47.296,26.58,0.003,2.473
10.391,-47.297,26.572,0,2.474
10.391,-47.297,26.564,0,2.473
10.389,-47.296,26.549,0.001,2.472
10.39,-47.296,26.557,-0.002,2.472
10.39,-47.296,26.557,0,2.473
10.389,-47.296,26.557,0,2.472
10.389,-47.296,26.557,0,2.472
10.389,-47.296,26.564,0,2.472
10.389,-47.297,26.556,0,2.473
10.388,-47.299,26.576,-0.001,2.474
10.388,-47.301,26.59,0,2.473
10.388,-47.301,26.59,0,2.475
10.388,-47.301,26.582,0.001,2.474
10.388,-47.301,26.582,0,2.473
10.389,-47.302,26.582,0,2.473
10.388,-47.302,26.582,0,2.472
10.389,-47.301,26.575,0.001,2.473
10.389,-47.301,26.575,0,2.472
10.388,-47.302,26.582,0,2.471
10.389,-47.3,26.583,-0.001,2.475
10.389,-47.3,26.583,0,2.475
10.389,-47.3,26.576,0.003,2.474
10.389,-47.299,26.57,0.002,2.473
10.39,-47.297,26.556,0.001,2.473
10.39,-47.297,26.549,0,2.473
10.39,-47.297,26.549,0,2.473
10.39,-47.297,26.549,0,2.472
10.39,-47.296,26.542,0,2.471
10.391,-47.298,26.556,0,2.471
10.391,-47.298,26.556,0,2.472
10.39,-47.297,26.549,0,2.475
10.39,-47.295,26.536,0.004,2.473
10.391,-47.291,26.502,0,2.474
10.391,-47.291,26.502,0,2.475
10.391,-47.291,26.502,0,2.473
10.391,-47.291,26.502,0,2.472
10.391,-47.292,26.494,0.002,2.473
10.391,-47.292,26.494,0,2.474
10.391,-47.292,26.485,0,2.472
10.39,-47.293,26.477,0.002,2.474
10.39,-47.294,26.461,0.004,2.473
10.39,-47.295,26.445,0.001,2.474
10.39,-47.297,26.443,0,2.474
10.389,-47.298,26.442,0.003,2.475
10.388,-47.299,26.426,0.001,2.472
10.385,-47.299,26.371,0,2.473
10.386,-47.298,26.365,0.001,2.472
10.386,-47.298,26.365,0,2.472
10.386,-47.298,26.365,0,2.473
10.384,-47.296,26.351,0.002,2.476
10.382,-47.294,26.27,0.009,2.47
10.382,-47.292,26.15,0.007,2.474
10.38,-47.292,26.089,0.001,2.473
10.376,-47.292,26.073,0.001,2.475
10.371,-47.29,25.983,0.008,2.472
10.371,-47.289,25.915,0.008,2.471
10.37,-47.291,25.906,-0.002,2.473
10.369,-47.289,25.877,0.006,2.475
10.366,-47.289,25.823,0.003,2.474
10.366,-47.29,25.815,0,2.474
10.367,-47.29,25.815,0,2.472
10.367,-47.291,25.822,0,2.474
10.366,-47.291,25.822,0,2.473
10.366,-47.291,25.822,0,2.474
10.366,-47.291,25.798,0.001,2.471
10.366,-47.29,25.777,0,2.474
10.366,-47.29,25.732,0.002,2.472
10.366,-47.289,25.717,0.002,2.474
10.366,-47.29,25.709,0.004,2.472
10.365,-47.29,25.671,0.004,2.474
10.365,-47.289,25.641,0.001,2.472
10.365,-47.29,25.61,0.002,2.473
10.365,-47.29,25.595,0.005,2.473
10.365,-47.291,25.578,0.004,2.475
10.365,-47.292,25.562,0.003,2.472
10.364,-47.295,25.559,0.001,2.471
10.364,-47.297,25.534,0.001,2.472
10.363,-47.3,25.493,0.005,2.475
10.362,-47.303,25.452,0.004,2.473
10.362,-47.305,25.419,0.002,2.476
10.361,-47.31,25.36,0.004,2.474
10.36,-47.313,25.318,0.003,2.471
10.36,-47.314,25.31,0.002,2.475
10.362,-47.318,25.275,0.002,2.474
10.362,-47.321,25.211,0.004,2.471
10.362,-47.325,25.161,0.003,2.473
10.366,-47.328,25.145,0,2.473
10.368,-47.328,25.145,0,2.473
10.371,-47.329,25.145,0,2.473
10.373,-47.33,25.145,0,2.472
10.374,-47.33,25.145,0,2.474
10.375,-47.33,25.145,0,2.472
10.377,-47.33,25.153,-0.001,2.473
10.379,-47.331,25.153,0,2.475
10.384,-47.331,25.154,0,2.473
10.39,-47.333,25.154,0,2.473
10.394,-47.333,25.163,0,2.473
10.399,-47.335,25.163,0,2.472
10.404,-47.336,25.163,0,2.473
10.408,-47.337,25.163,0,2.474
10.414,-47.338,25.171,0,2.474
10.421,-47.339,25.188,-0.001,2.474
10.427,-47.34,25.196,0,2.472
10.439,-47.343,25.204,0,2.472
10.447,-47.345,25.212,0,2.473
10.456,-47.346,25.237,-0.003,2.473
10.464,-47.346,25.262,-0.004,2.473
10.473,-47.348,25.279,0,2.474
10.481,-47.349,25.28,0,2.474
10.485,-47.349,25.273,0.001,2.473
10.489,-47.346,25.24,0.004,2.473
10.492,-47.345,25.212,0.003,2.473
10.495,-47.344,25.198,0.001,2.477
10.498,-47.344,25.207,-0.001,2.473
10.504,-47.345,25.215,-0.001,2.473
10.506,-47.344,25.202,0.002,2.473
10.507,-47.341,25.175,0.002,2.474
10.508,-47.34,25.162,0.002,2.472
10.508,-47.339,25.147,0,2.473
10.507,-47.34,25.153,-0.002,2.472
10.506,-47.342,25.158,0,2.473
10.506,-47.342,25.158,0,2.474
10.506,-47.342,25.158,0,2.472
10.506,-47.342,25.158,0,2.475
10.506,-47.342,25.158,0,2.475
10.506,-47.342,25.158,0,2.475
10.506,-47.343,25.15,0,2.473
10.505,-47.344,25.134,0.002,2.474
10.504,-47.344,25.125,0,2.475
10.505,-47.344,25.125,0,2.471
10.504,-47.345,25.117,0,2.473
10.504,-47.345,25.117,0,2.472
10.504,-47.344,25.117,0,2.474
10.503,-47.346,25.1,0.001,2.474
10.503,-47.345,25.086,0,2.474
10.503,-47.346,25.077,0,2.472
10.503,-47.346,25.077,0,2.475
10.503,-47.346,25.069,0,2.473
10.5,-47.348,25.036,0.002,2.474
10.497,-47.349,25.011,0.004,2.473
10.496,-47.35,24.986,0.002,2.474
10.496,-47.35,24.986,0,2.474
10.495,-47.351,24.978,0,2.473
10.494,-47.353,24.945,0.006,2.473
10.486,-47.36,24.812,0.011,2.473
10.48,-47.367,24.681,0.017,2.473
10.472,-47.373,24.54,0.017,2.472
10.464,-47.377,24.397,0,2.472
10.446,-47.378,24.053,0.012,2.474
10.44,-47.38,23.994,0,2.471
10.436,-47.38,23.992,0,2.472
10.434,-47.378,23.979,0.003,2.474
10.434,-47.377,23.958,0.003,2.472
10.435,-47.374,23.931,0.004,2.472
10.435,-47.372,23.903,0.002,2.474
10.435,-47.372,23.903,0,2.473
10.431,-47.373,23.878,0.004,2.472
10.424,-47.375,23.804,0.008,2.473
10.42,-47.373,23.682,0.013,2.473
10.418,-47.369,23.549,0.008,2.471
10.416,-47.368,23.519,0.005,2.473
10.404,-47.369,23.353,0.014,2.473
10.402,-47.368,23.284,0.016,2.472
10.397,-47.366,23.086,0.013,2.472
10.394,-47.365,23.002,0.003,2.474
10.392,-47.365,22.985,0,2.472
10.39,-47.364,22.955,0.004,2.473
10.39,-47.363,22.904,0.008,2.472
10.39,-47.361,22.846,0.006,2.472
10.39,-47.361,22.761,0.005,2.474
10.391,-47.359,22.726,0.001,2.471
10.391,-47.358,22.705,0.001,2.473
10.391,-47.358,22.705,0,2.471
10.391,-47.358,22.705,0,2.472
10.392,-47.356,22.692,0.002,2.473
10.392,-47.355,22.632,0.007,2.471
10.392,-47.356,22.623,0,2.474
10.392,-47.355,22.617,0,2.472
10.392,-47.354,22.611,0.002,2.472
10.392,-47.354,22.604,0,2.472
10.392,-47.354,22.604,0,2.473
10.393,-47.354,22.604,-0.002,2.473
10.393,-47.355,22.602,-0.002,2.472
10.393,-47.356,22.594,0,2.472
10.393,-47.356,22.594,0,2.472
10.393,-47.356,22.594,0,2.472
10.393,-47.356,22.594,0,2.473
10.393,-47.355,22.587,0,2.473
10.393,-47.357,22.577,0.002,2.472
10.393,-47.358,22.559,0.004,2.471
10.393,-47.359,22.551,0.002,2.473
10.393,-47.36,22.557,0,2.473
10.393,-47.359,22.566,-0.002,2.471
10.393,-47.359,22.566,0,2.472
10.393,-47.359,22.566,0,2.474
10.394,-47.358,22.559,0,2.47
10.394,-47.358,22.553,0,2.471
10.394,-47.358,22.559,-0.003,2.471
10.393,-47.36,22.572,-0.002,2.474
10.393,-47.361,22.579,0,2.472
10.393,-47.361,22.579,0,2.474
10.393,-47.362,22.585,0,2.47
10.392,-47.363,22.583,0.003,2.472
10.392,-47.364,22.59,-0.001,2.473
10.392,-47.364,22.59,0,2.473
10.391,-47.366,22.601,0.004,2.473
10.391,-47.366,22.601,0,2.469
10.391,-47.367,22.592,0,2.471
10.391,-47.367,22.592,0,2.472
10.391,-47.367,22.592,0,2.473
10.391,-47.367,22.592,0,2.473
10.391,-47.367,22.592,0,2.473
10.391,-47.367,22.592,0,2.471
10.391,-47.368,22.575,0.002,2.472
10.39,-47.37,22.58,0.001,2.473
10.39,-47.37,22.58,0,2.47
10.39,-47.371,22.586,0,2.47
10.39,-47.372,22.578,0.002,2.474
10.39,-47.372,22.554,0.003,2.472
10.389,-47.373,22.513,0.004,2.471
10.388,-47.375,22.473,0.003,2.474
10.388,-47.374,22.434,0.005,2.471
10.387,-47.374,22.389,0.005,2.472
10.388,-47.372,22.338,0.003,2.471
10.388,-47.371,22.316,0,2.47
10.389,-47.368,22.261,0.006,2.473
10.389,-47.359,22.021,0.017,2.473
10.386,-47.355,21.827,0.024,2.473
10.373,-47.347,21.297,0.036,2.471
10.357,-47.338,20.774,0.034,2.472
10.346,-47.332,20.412,0.041,2.472
10.337,-47.323,20.016,0.048,2.472
10.325,-47.306,19.075,0.061,2.471
10.314,-47.287,18.041,0.068,2.471
10.302,-47.272,16.999,0.086,2.473
10.289,-47.263,15.951,0.101,2.472
10.271,-47.253,14.631,0.096,2.473
10.257,-47.245,13.687,0.092,2.472
10.239,-47.234,12.573,0.083,2.475
10.22,-47.221,11.248,0.084,2.472
10.211,-47.195,9.37,0.087,2.47
10.198,-47.186,8.057,0.066,2.472
10.187,-47.189,7.413,0.06,2.472
10.17,-47.19,6.512,0.058,2.469
10.157,-47.192,5.778,0.055,2.471
10.15,-47.192,5.284,0.049,2.472
10.145,-47.192,4.742,0.04,2.473
10.13,-47.196,3.697,0.06,2.474
10.125,-47.201,2.625,0.052,2.472
10.123,-47.208,2.065,0.028,2.473
10.117,-47.217,1.587,0.028,2.474
10.118,-47.216,1.249,0.032,2.472
10.117,-47.219,0.994,0.065,2.472
10.117,-47.221,0.929,0.081,2.47
10.116,-47.222,0.937,0.055,2.473
10.119,-47.223,0.962,0.054,2.472
10.119,-47.223,0.948,0.06,2.472
10.119,-47.224,0.927,0.065,2.473
10.12,-47.226,0.936,0.061,2.473
10.121,-47.227,0.94,0.06,2.469
10.125,-47.228,0.94,0.061,2.472
10.125,-47.23,0.9,0.08,2.472
10.124,-47.233,0.825,0.109,2.473
10.127,-47.236,0.785,0.115,2.471
10.129,-47.237,0.774,0.12,2.472
10.129,-47.24,0.665,0.167,2.47
10.132,-47.239,0.602,0.181,2.473
10.133,-47.239,0.588,0.189,2.471
10.134,-47.237,0.53,0.213,2.473
10.134,-47.235,0.394,0.269,2.472
10.136,-47.232,0.161,0.344,2.472
10.136,-47.234,-0.184,0.474,2.472
10.139,-47.232,-0.585,0.622,2.473
10.144,-47.231,-0.774,0.682,2.471
10.153,-47.23,-0.967,0.745,2.473
10.166,-47.23,-1.352,0.895,2.47
10.173,-47.228,-1.747,1.039,2.472
10.171,-47.226,-2.143,1.175,2.472
10.17,-47.223,-2.367,1.24,2.471
10.16,-47.226,-2.763,1.384,2.47
10.155,-47.232,-3.096,1.51,2.47
10.159,-47.232,-3.553,1.669,2.473
10.165,-47.224,-4.008,1.811,2.473
10.162,-47.216,-4.34,1.941,2.472
10.168,-47.204,-4.812,2.105,2.472
10.176,-47.193,-5.057,2.18,2.475
10.185,-47.187,-5.642,2.412,2.472
10.186,-47.179,-6.139,2.585,2.471
10.181,-47.173,-6.567,2.715,2.473
10.18,-47.169,-6.681,2.732,2.472
10.182,-47.17,-6.691,2.732,2.471
10.182,-47.172,-6.659,2.717,2.47
10.182,-47.172,-6.56,2.673,2.472
10.183,-47.173,-6.097,2.468,2.47
10.191,-47.173,-4.326,1.786,2.473
10.201,-47.174,-3.165,1.364,2.474
10.214,-47.19,-1.645,0.833,2.473
10.232,-47.22,-0.297,0.356,2.47
10.247,-47.251,0.917,-0.075,2.471
10.265,-47.279,1.946,-0.109,2.471
10.263,-47.309,3.128,-0.095,2.473
10.246,-47.335,4.057,-0.083,2.471
10.239,-47.358,4.741,-0.086,2.472
10.238,-47.383,5.557,-0.11,2.472
10.232,-47.421,7.095,-0.143,2.47
10.213,-47.464,8.893,-0.084,2.474
10.208,-47.486,9.535,-0.036,2.474
10.207,-47.508,9.985,-0.029,2.472
10.203,-47.521,10.199,-0.022,2.47
10.197,-47.54,10.332,-0.012,2.47
10.188,-47.566,10.478,-0.014,2.471
10.178,-47.606,10.557,0.001,2.472
10.179,-47.651,10.578,-0.006,2.474
10.187,-47.686,10.692,-0.018,2.472
10.194,-47.725,10.908,-0.03,2.474
10.197,-47.78,11.339,-0.023,2.473
10.197,-47.819,11.451,0,2.473
10.199,-47.875,11.455,-0.006,2.472
10.214,-47.937,11.563,-0.012,2.473
10.224,-47.999,11.712,-0.017,2.469
10.248,-48.086,11.879,-0.002,2.471
10.259,-48.133,11.981,-0.014,2.475
10.262,-48.177,12.105,-0.017,2.471
10.259,-48.223,12.265,-0.015,2.474
10.255,-48.266,12.45,-0.018,2.473
10.239,-48.32,12.683,-0.017,2.472
10.217,-48.373,12.864,-0.006,2.473
10.206,-48.403,12.838,0.012,2.472
10.201,-48.422,12.862,0.012,2.471
10.193,-48.451,13.054,-0.008,2.473
10.191,-48.464,13.172,-0.011,2.472
10.187,-48.475,13.304,-0.012,2.471
10.183,-48.482,13.391,-0.004,2.471
10.177,-48.487,13.43,-0.005,2.473
10.162,-48.495,13.526,-0.007,2.473
10.156,-48.499,13.575,-0.012,2.474
10.136,-48.509,13.727,-0.013,2.471
10.121,-48.514,13.84,-0.012,2.474
10.096,-48.519,13.974,-0.008,2.472
10.081,-48.516,14.015,-0.005,2.47
10.067,-48.504,13.989,0.008,2.472
10.057,-48.492,13.92,0.005,2.472
10.047,-48.488,13.94,-0.009,2.472
10.043,-48.49,14.02,-0.017,2.473
10.023,-48.496,14.459,-0.032,2.472
9.997,-48.498,14.823,-0.028,2.473
9.978,-48.498,15.113,-0.026,2.472
9.967,-48.497,15.385,-0.034,2.473
9.953,-48.5,16.119,-0.069,2.471
9.944,-48.496,16.772,-0.081,2.475
9.932,-48.478,17.598,-0.051,2.471
9.915,-48.467,18.035,-0.035,2.472
9.901,-48.471,18.349,-0.045,2.473
9.894,-48.486,18.853,-0.064,2.473
9.898,-48.507,19.594,-0.079,2.471
9.903,-48.52,20.172,-0.083,2.473
9.907,-48.539,21.127,-0.042,2.469
9.907,-48.544,21.377,-0.021,2.473
9.909,-48.549,21.576,-0.016,2.474
9.916,-48.549,21.632,0.001,2.472
9.926,-48.548,21.478,0.022,2.473
9.932,-48.555,21.257,0.026,2.472
9.933,-48.583,20.754,0.033,2.473
9.933,-48.626,20.394,0.03,2.471
9.938,-48.672,20.074,0,2.474
9.943,-48.725,19.725,0.038,2.47
9.949,-48.773,19.47,0.029,2.471
9.954,-48.84,19.23,0.02,2.474
9.945,-48.973,19.221,-0.006,2.471
9.929,-49.035,19.312,-0.011,2.474
9.911,-49.096,19.409,-0.005,2.475
9.902,-49.121,19.413,0,2.472
9.873,-49.185,19.331,0.006,2.472
9.855,-49.217,19.37,-0.007,2.472
9.846,-49.246,19.427,-0.005,2.47
9.841,-49.295,19.612,-0.017,2.473
9.842,-49.327,19.807,-0.021,2.47
9.842,-49.368,20.251,-0.029,2.475
9.841,-49.396,20.484,-0.017,2.47
9.845,-49.428,20.578,0,2.474
9.849,-49.472,20.45,0.014,2.472
9.848,-49.499,20.137,0.034,2.472
9.846,-49.512,19.783,0.033,2.472
9.85,-49.522,19.513,0.024,2.475
9.86,-49.53,19.319,0.02,2.471
9.876,-49.538,19.146,0.018,2.473
9.896,-49.541,19.001,0.007,2.472
9.907,-49.539,19,-0.005,2.472
9.908,-49.541,19.106,-0.018,2.474
9.905,-49.545,19.255,-0.014,2.474
9.902,-49.555,19.505,-0.022,2.472
9.901,-49.562,19.644,-0.011,2.474
9.9,-49.565,19.718,-0.004,2.471
9.902,-49.567,19.716,0,2.473
9.907,-49.565,19.661,0.006,2.473
9.924,-49.567,19.626,0,2.474
9.932,-49.57,19.644,-0.003,2.471
9.928,-49.573,19.619,0.006,2.472
9.921,-49.573,19.497,0.016,2.473
9.918,-49.57,19.402,0.017,2.474
9.918,-49.562,19.146,0.021,2.472
9.924,-49.556,19.069,0.009,2.472
9.933,-49.547,19.018,0.007,2.472
9.94,-49.539,18.816,0.017,2.474
9.95,-49.534,18.562,0.011,2.473
9.956,-49.532,18.508,0.011,2.472
9.981,-49.529,18.445,0,2.473
9.996,-49.524,18.44,0.003,2.472
10.003,-49.519,18.372,0.009,2.469
10.006,-49.512,18.267,0.012,2.475
10.01,-49.505,18.132,0.008,2.471
10.013,-49.503,18.097,0.003,2.472
10.013,-49.501,18.033,0.012,2.473
10.019,-49.492,17.883,0.009,2.475
10.037,-49.485,17.766,0.001,2.471
10.047,-49.483,17.753,-0.002,2.474
10.052,-49.488,17.757,0.001,2.472
10.055,-49.49,17.725,0.005,2.471
10.059,-49.492,17.734,0,2.473
10.061,-49.505,17.86,-0.011,2.473
10.058,-49.526,17.972,-0.006,2.473
10.052,-49.546,17.937,0.008,2.474
10.048,-49.564,17.797,0.018,2.475
10.044,-49.589,17.586,0.014,2.474
10.042,-49.616,17.51,0.003,2.471
10.038,-49.63,17.455,0.007,2.472
10.034,-49.644,17.192,0.015,2.472
10.032,-49.655,17.021,0.014,2.472
10.032,-49.664,16.907,0.009,2.474
10.028,-49.68,16.627,0.014,2.471
10.026,-49.687,16.505,0.007,2.471
10.027,-49.688,16.484,0.005,2.474
10.03,-49.691,16.49,-0.001,2.472
10.031,-49.697,16.418,0.011,2.47
10.031,-49.705,16.325,0.016,2.472
10.028,-49.718,16.181,0.009,2.475
10.028,-49.729,16.089,0.006,2.474
10.028,-49.731,16.056,0.001,2.471
10.031,-49.732,16.056,0,2.473
10.034,-49.732,16.047,0,2.472
10.04,-49.733,16.039,0,2.47
10.049,-49.733,16.071,-0.001,2.474
10.051,-49.734,16.06,0,2.473
10.051,-49.734,15.991,0.008,2.473
10.05,-49.733,15.901,0.011,2.474
10.05,-49.735,15.777,0.001,2.473
10.05,-49.737,15.774,0,2.473
10.051,-49.738,15.783,0,2.471
10.05,-49.74,15.779,0.004,2.472
10.049,-49.743,15.763,0,2.472
10.048,-49.747,15.765,-0.002,2.472
10.047,-49.756,15.828,-0.009,2.474
10.046,-49.765,15.922,-0.011,2.474
10.045,-49.775,16.016,-0.007,2.473
10.046,-49.778,16.051,0,2.473
10.046,-49.778,16.051,0,2.473
10.047,-49.778,16.07,-0.006,2.473
10.046,-49.781,16.106,-0.005,2.475
10.045,-49.784,16.149,-0.003,2.472
10.044,-49.788,16.173,0,2.474
10.043,-49.791,16.217,-0.006,2.471
10.042,-49.793,16.244,-0.003,2.469
10.043,-49.795,16.261,-0.003,2.473
10.042,-49.799,16.294,0,2.472
10.04,-49.805,16.283,0.004,2.471
10.038,-49.806,16.259,0.002,2.475
10.039,-49.807,16.248,0.001,2.474
10.038,-49.808,16.266,-0.004,2.474
10.042,-49.815,16.336,-0.004,2.473
10.042,-49.819,16.4,-0.006,2.472
10.039,-49.822,16.444,-0.002,2.471
10.038,-49.822,16.444,0,2.473
10.037,-49.822,16.403,0.004,2.472
10.036,-49.823,16.37,0.002,2.472
10.036,-49.827,16.332,0,2.474
10.036,-49.829,16.35,-0.003,2.473
10.037,-49.829,16.35,0,2.474
10.037,-49.829,16.33,0,2.471
10.037,-49.828,16.321,0,2.474
10.037,-49.827,16.313,0.004,2.472
10.037,-49.827,16.262,0.01,2.473
10.038,-49.827,16.222,0.001,2.47
10.038,-49.825,16.165,0.004,2.472
10.039,-49.823,16.128,0.003,2.472
10.039,-49.822,16.09,0.005,2.473
10.039,-49.821,16.081,0,2.475
10.04,-49.82,16.053,0.005,2.47
10.039,-49.821,16.011,0.011,2.474
10.039,-49.823,15.967,0.007,2.472
10.039,-49.824,15.894,0.009,2.474
10.039,-49.822,15.877,0,2.471
10.039,-49.821,15.868,0,2.472
10.039,-49.821,15.817,0.006,2.47
10.038,-49.821,15.727,0.001,2.474
10.038,-49.82,15.718,0.002,2.473
10.038,-49.818,15.701,0,2.472
10.039,-49.817,15.664,0.004,2.473
10.04,-49.817,15.664,0,2.474
10.04,-49.817,15.644,0,2.473
10.04,-49.817,15.633,0.003,2.47
10.04,-49.817,15.582,0.004,2.472
10.039,-49.818,15.529,0.006,2.474
10.039,-49.818,15.49,0.005,2.47
10.04,-49.813,15.387,0.009,2.472
10.04,-49.812,15.318,0.005,2.474
10.04,-49.812,15.299,0,2.471
10.039,-49.812,15.288,0.003,2.474
10.041,-49.809,15.213,0.008,2.473
10.041,-49.806,15.117,0.007,2.471
10.041,-49.808,15.084,0.001,2.47
10.041,-49.808,15.053,0.003,2.469
10.04,-49.81,14.998,0.007,2.472
10.039,-49.815,14.876,0.009,2.472
10.039,-49.817,14.821,0.003,2.474
10.038,-49.818,14.799,0.001,2.473
10.038,-49.82,14.766,0.003,2.471
10.037,-49.822,14.699,0.007,2.471
10.037,-49.823,14.657,0,2.472
10.038,-49.824,14.666,-0.001,2.473
10.038,-49.824,14.666,0,2.473
10.038,-49.824,14.655,0.002,2.471
10.037,-49.825,14.633,0.001,2.472
10.037,-49.827,14.6,0.003,2.472
10.037,-49.828,14.555,0.004,2.472
10.036,-49.825,14.388,0.016,2.474
10.035,-49.823,14.281,0.013,2.473
10.035,-49.824,14.208,0.004,2.473
10.036,-49.826,14.194,0,2.471
10.036,-49.826,14.183,0,2.471
10.036,-49.827,14.152,0.002,2.473
10.036,-49.826,14.143,0,2.472
10.037,-49.826,14.143,0,2.473
10.037,-49.826,14.143,0,2.472
10.037,-49.826,14.124,0.001,2.472
10.038,-49.824,14.087,0.002,2.471
10.038,-49.823,14.049,0,2.474
10.038,-49.823,14.019,0.004,2.473
10.038,-49.823,13.957,0.005,2.472
10.038,-49.823,13.886,0.01,2.472
10.038,-49.823,13.867,0,2.473
10.038,-49.823,13.855,0,2.471
10.038,-49.823,13.844,0.001,2.471
10.038,-49.823,13.816,0.003,2.471
10.038,-49.822,13.776,0.001,2.474
10.038,-49.824,13.721,0.005,2.472
10.038,-49.825,13.648,0.009,2.473
10.038,-49.824,13.538,0.013,2.474
10.039,-49.821,13.402,0.012,2.47
10.036,-49.82,13.281,0.014,2.473
10.033,-49.821,13.135,0.007,2.471
10.032,-49.824,13.068,0.005,2.471
10.032,-49.824,13.057,0,2.474
10.032,-49.825,13.035,0.006,2.472
10.031,-49.826,12.981,0.002,2.471
10.031,-49.826,12.919,0.003,2.474
10.032,-49.825,12.891,0.003,2.472
10.033,-49.821,12.668,0.018,2.47
10.032,-49.82,12.456,0.02,2.474
10.031,-49.819,12.293,0.017,2.471
10.029,-49.818,12.163,0.016,2.474
10.023,-49.814,11.862,0.024,2.473
10.019,-49.811,11.633,0.018,2.469
10.018,-49.802,11.244,0.022,2.474
10.022,-49.798,11.092,0.012,2.471
10.021,-49.799,11.039,0.004,2.472
10.019,-49.801,10.85,0.014,2.473
10.018,-49.8,10.566,0.027,2.474
10.017,-49.8,10.392,0.01,2.473
10.016,-49.802,10.327,0.005,2.473
10.016,-49.804,10.372,-0.001,2.472
10.019,-49.806,10.38,0,2.47
10.021,-49.806,10.392,-0.004,2.473
10.021,-49.808,10.468,-0.008,2.472
10.02,-49.81,10.484,0,2.472
10.02,-49.811,10.462,0.001,2.473
10.022,-49.811,10.493,-0.004,2.471
10.022,-49.811,10.473,0.005,2.474
10.022,-49.81,10.434,0.002,2.474
10.022,-49.811,10.431,-0.001,2.472
10.022,-49.811,10.451,-0.003,2.472
10.021,-49.813,10.417,0.004,2.473
10.021,-49.815,10.341,0.006,2.473
10.02,-49.818,10.231,0.011,2.474
10.019,-49.82,10.143,0.01,2.472
10.017,-49.825,9.926,0.018,2.472
10.016,-49.831,9.666,0.025,2.474
10.015,-49.833,9.312,0.021,2.473
10.016,-49.837,8.894,0.04,2.472
10.011,-49.85,8.283,0.054,2.474
10.006,-49.862,7.878,0.053,2.472
9.998,-49.878,7.337,0.048,2.472
9.991,-49.889,6.622,0.045,2.472
9.988,-49.889,6.143,0.038,2.471
9.986,-49.888,5.699,0.032,2.474
9.985,-49.889,5.353,0.037,2.473
9.984,-49.893,4.926,0.044,2.473
9.98,-49.898,4.409,0.051,2.472
9.972,-49.906,3.601,0.019,2.474
9.97,-49.907,3.396,0.012,2.473
9.967,-49.907,3.207,0.05,2.474
9.965,-49.909,2.833,0.043,2.472
9.965,-49.911,2.359,0.049,2.472
9.965,-49.912,2.094,0.045,2.472
9.964,-49.912,1.62,0.048,2.471
9.963,-49.914,1.446,0.015,2.473
9.962,-49.914,1.245,0.016,2.471
9.96,-49.915,0.928,0.068,2.473
9.962,-49.913,0.853,0.079,2.474
9.966,-49.916,0.857,0.089,2.471
9.965,-49.92,0.715,0.148,2.474
9.964,-49.926,0.474,0.233,2.471
9.966,-49.929,0.403,0.254,2.473
9.966,-49.932,0.332,0.284,2.471
9.965,-49.937,0.102,0.377,2.474
9.965,-49.94,-0.128,0.452,2.473
9.964,-49.946,-0.529,0.598,2.473
9.964,-49.948,-0.64,0.639,2.472
9.965,-49.947,-0.922,0.752,2.471
9.969,-49.933,-1.812,1.088,2.473
9.954,-49.912,-3.284,1.606,2.471
9.955,-49.896,-4.483,2.055,2.473
9.96,-49.881,-5.45,2.387,2.472
9.951,-49.869,-6.074,2.566,2.474
9.931,-49.862,-6.427,2.658,2.474
9.927,-49.86,-6.486,2.662,2.473
9.936,-49.86,-6.342,2.594,2.471
9.943,-49.863,-6.156,2.535,2.471
9.944,-49.87,-5.575,2.278,2.473
9.94,-49.888,-4.025,1.667,2.472
9.957,-49.922,-0.906,0.528,2.474
10.008,-50.019,1.542,-0.06,2.474
9.994,-50.099,3.046,-0.132,2.472
9.974,-50.136,4.917,-0.173,2.472
9.967,-50.163,6.732,-0.158,2.472
9.967,-50.18,8.193,-0.117,2.473
9.98,-50.188,9.229,-0.057,2.471
10.001,-50.185,9.864,-0.039,2.473
10.008,-50.186,10.246,-0.045,2.475
10.012,-50.188,10.844,-0.049,2.471
10.007,-50.191,11.5,-0.025,2.474
10.006,-50.19,11.765,-0.022,2.473
10.008,-50.191,11.943,-0.028,2.469
10.011,-50.193,12.258,-0.027,2.473
10.014,-50.191,12.685,-0.034,2.47
10.016,-50.183,12.923,-0.008,2.473
10.019,-50.168,13.102,-0.01,2.473
10.02,-50.165,13.203,-0.025,2.471
10.021,-50.163,13.428,-0.03,2.471
10.019,-50.161,13.714,-0.019,2.475
10.02,-50.153,13.908,-0.014,2.476
10.026,-50.136,14.382,-0.026,2.473
10.03,-50.123,14.722,-0.028,2.47
10.03,-50.11,15.018,-0.018,2.471
10.027,-50.097,15.363,-0.031,2.471
10.028,-50.093,15.505,-0.037,2.471
10.026,-50.068,16.255,-0.053,2.473
10.022,-50.043,16.896,-0.059,2.476
10.015,-50.018,17.378,0,2.475
10.003,-49.978,18.23,-0.057,2.476
10,-49.951,18.875,-0.076,2.476
9.995,-49.902,20.229,-0.094,2.471
9.99,-49.877,21.094,-0.076,2.471
9.984,-49.85,22.816,-0.08,2.47
9.986,-49.849,23.97,-0.108,2.471
9.985,-49.859,25.222,-0.1,2.472
9.981,-49.881,26.475,-0.095,2.473
9.978,-49.899,27.362,-0.099,2.473
9.973,-49.919,28.342,-0.102,2.475
9.965,-49.942,29.759,-0.11,2.476
9.963,-49.95,30.63,-0.105,2.473
9.965,-49.948,31.403,-0.084,2.472
9.98,-49.933,32.708,-0.06,2.47
9.988,-49.926,33.308,-0.056,2.47
9.998,-49.907,33.908,-0.007,2.471
10.006,-49.889,33.86,0.008,2.472
10.014,-49.878,33.76,0.011,2.475
10.024,-49.863,33.54,0,2.475
10.027,-49.855,33.38,0.021,2.475
10.027,-49.845,33.05,0.036,2.475
10.027,-49.825,32.351,0.042,2.47
10.03,-49.813,31.844,0.051,2.472
10.03,-49.812,31.283,0.042,2.471
10.028,-49.817,30.82,0.04,2.471
10.029,-49.816,30.219,0.035,2.472
10.029,-49.816,30.028,0.044,2.474
10.028,-49.819,29.706,0.024,2.473
10.024,-49.82,29.424,0.022,2.474
10.013,-49.816,28.983,0.023,2.471
10.012,-49.814,28.803,0.01,2.472
10.011,-49.811,28.694,0.005,2.472
10.009,-49.813,28.633,0.002,2.471
10.002,-49.818,28.498,0.011,2.474
9.993,-49.823,28.283,0.016,2.474
9.984,-49.825,28.22,-0.003,2.474
9.982,-49.823,28.311,-0.011,2.473
9.979,-49.823,28.472,-0.007,2.473
9.976,-49.826,28.529,-0.007,2.474
9.973,-49.84,28.772,-0.016,2.473
9.971,-49.848,28.868,-0.002,2.472
9.973,-49.84,28.702,0.002,2.471
9.972,-49.841,28.762,-0.006,2.472
9.972,-49.84,28.732,0.004,2.473
9.973,-49.837,28.684,0.003,2.472
9.973,-49.834,28.665,0,2.475
9.974,-49.834,28.685,0,2.472
9.974,-49.836,28.674,0.001,2.471
9.974,-49.838,28.663,-0.002,2.472
9.976,-49.843,28.731,-0.006,2.473
9.975,-49.851,28.847,-0.008,2.475
9.975,-49.851,28.877,0.001,2.472
9.974,-49.85,28.878,0,2.471
9.975,-49.848,28.919,-0.005,2.474
9.975,-49.848,28.959,-0.007,2.472
9.974,-49.853,29.087,-0.01,2.472
9.976,-49.857,29.156,-0.003,2.472
9.979,-49.858,29.156,0,2.472
9.979,-49.861,29.195,-0.009,2.472
9.977,-49.873,29.461,-0.019,2.474
9.977,-49.88,29.679,-0.018,2.471
9.976,-49.89,30.069,-0.012,2.471
9.974,-49.897,30.389,-0.021,2.47
9.972,-49.9,30.489,-0.006,2.474
9.972,-49.898,30.469,0.001,2.473
9.971,-49.902,30.569,-0.008,2.471
9.97,-49.905,30.618,0,2.475
9.969,-49.91,30.778,-0.013,2.473
9.967,-49.916,30.897,-0.011,2.472
9.967,-49.922,31.006,0,2.473
9.969,-49.917,30.937,0.005,2.473
9.968,-49.916,30.917,0,2.473
9.968,-49.917,30.937,-0.001,2.471
9.967,-49.919,30.987,-0.001,2.472
9.968,-49.919,30.997,0,2.474
9.968,-49.916,30.948,0.01,2.473
9.968,-49.912,30.878,0,2.471
9.968,-49.914,30.908,-0.004,2.474
9.967,-49.916,30.917,0.002,2.472
9.967,-49.914,30.878,0.002,2.472
9.967,-49.912,30.848,0.001,2.474
9.967,-49.913,30.858,-0.002,2.473
9.967,-49.913,30.858,0,2.474
9.967,-49.913,30.858,0,2.471
9.967,-49.913,30.858,0,2.472
9.967,-49.913,30.858,0,2.474
9.967,-49.913,30.858,0,2.472
9.967,-49.913,30.868,-0.001,2.474
9.966,-49.917,30.917,-0.005,2.473
9.965,-49.922,31.016,-0.014,2.471
9.962,-49.931,31.216,-0.016,2.472
9.961,-49.935,31.346,-0.013,2.474
9.961,-49.936,31.468,-0.006,2.472
9.962,-49.934,31.479,0,2.473
9.961,-49.937,31.498,-0.006,2.472
9.96,-49.94,31.558,-0.004,2.472
9.96,-49.94,31.558,0.003,2.471
9.961,-49.937,31.518,0.006,2.473
9.961,-49.935,31.488,0.001,2.472
9.96,-49.934,31.479,0,2.471
9.96,-49.934,31.479,0,2.474
9.96,-49.934,31.468,0,2.472
9.96,-49.934,31.468,0,2.474
9.96,-49.932,31.428,0.005,2.473
9.961,-49.93,31.399,0.001,2.472
9.961,-49.93,31.399,0,2.474
9.961,-49.931,31.409,0,2.472
9.961,-49.931,31.398,0,2.472
9.961,-49.93,31.388,0,2.472
9.961,-49.929,31.348,0.003,2.473
9.961,-49.93,31.338,0.003,2.474
9.961,-49.93,31.338,0,2.473
9.961,-49.93,31.348,-0.001,2.472
9.961,-49.93,31.348,0,2.473
9.961,-49.93,31.348,0,2.473
9.962,-49.93,31.348,0,2.471
9.962,-49.93,31.348,0,2.472
9.962,-49.93,31.348,0,2.471
9.962,-49.93,31.338,0.003,2.472
9.962,-49.93,31.338,0,2.473
9.962,-49.931,31.358,-0.001,2.474
9.962,-49.931,31.358,0,2.471
9.962,-49.931,31.358,0,2.473
9.962,-49.931,31.358,0,2.472
9.962,-49.931,31.358,0,2.473
9.96,-49.936,31.427,-0.003,2.474
9.96,-49.938,31.467,-0.001,2.472
9.96,-49.939,31.477,-0.001,2.471
9.96,-49.939,31.477,0,2.473
9.96,-49.939,31.477,0,2.474
9.959,-49.94,31.517,-0.004,2.473
9.959,-49.942,31.547,-0.003,2.473
9.959,-49.942,31.537,0.001,2.471
9.959,-49.941,31.547,0,2.473
9.959,-49.94,31.527,0.003,2.473
9.96,-49.938,31.498,0.001,2.473
9.961,-49.938,31.477,0,2.472
9.961,-49.938,31.477,0,2.474
9.961,-49.938,31.477,0,2.471
9.961,-49.938,31.477,0,2.472
9.961,-49.938,31.477,0,2.472
9.961,-49.938,31.477,0,2.474
9.961,-49.938,31.477,0,2.471
9.961,-49.938,31.477,0,2.474
9.962,-49.937,31.467,0,2.471
9.962,-49.937,31.457,0,2.471
9.962,-49.937,31.447,0,2.476
9.962,-49.938,31.437,0,2.473
9.962,-49.937,31.427,0.004,2.472
9.963,-49.936,31.407,0,2.47
9.963,-49.936,31.387,0,2.474
9.963,-49.936,31.387,0,2.473
9.963,-49.936,31.376,0,2.473
9.963,-49.937,31.346,0.007,2.475
9.962,-49.935,31.285,0.01,2.47
9.962,-49.933,31.154,0.017,2.473
9.955,-49.932,30.656,0.026,2.473
9.952,-49.932,30.422,0.028,2.474
9.952,-49.932,30.148,0.033,2.472
9.952,-49.929,29.804,0.039,2.471
9.952,-49.928,29.5,0.043,2.473
9.95,-49.927,28.891,0.048,2.471
9.945,-49.923,28.385,0.062,2.474
9.925,-49.893,26.485,0.104,2.471
9.923,-49.873,25.538,0.114,2.472
9.924,-49.848,24.408,0.12,2.471
9.923,-49.817,22.775,0.167,2.473
9.915,-49.791,21.17,0.211,2.473
9.905,-49.755,18.467,0.22,2.474
9.894,-49.737,16.476,0.173,2.474
9.867,-49.735,14.081,0.105,2.472
9.854,-49.733,13.176,0.108,2.471
9.838,-49.716,11.419,0.11,2.472
9.82,-49.709,9.444,0.067,2.471
9.807,-49.715,8.87,0.044,2.471
9.797,-49.714,8.374,0.052,2.473
9.791,-49.703,7.704,0.079,2.473
9.789,-49.668,6.124,0.146,2.474
9.789,-49.625,4.511,0.178,2.474
9.804,-49.558,1.65,0.176,2.474
9.815,-49.531,0.169,0.107,2.473
9.814,-49.522,-0.279,0.221,2.473
9.805,-49.511,-0.292,0.143,2.472
9.795,-49.501,-0.471,0.157,2.47
9.797,-49.493,-0.706,0.046,2.474
9.802,-49.491,-0.92,0.017,2.474
9.804,-49.5,-0.358,0.097,2.475
9.806,-49.508,0.338,0.013,2.472
9.809,-49.514,0.556,0.046,2.472
9.799,-49.514,0.333,0.037,2.473
9.787,-49.509,0.145,0.015,2.474
9.781,-49.507,-0.028,0.029,2.473
9.774,-49.509,0.102,0.032,2.471
9.766,-49.51,0.163,-0.008,2.469
9.755,-49.513,-0.123,0.022,2.475
9.742,-49.505,-0.518,0.017,2.472
9.739,-49.51,-0.262,0.382,2.474
9.741,-49.508,-0.111,-0.008,2.472
9.756,-49.521,-0.029,0.163,2.474
9.757,-49.511,-0.338,0.022,2.471
9.753,-49.507,-0.318,0.145,2.472
9.761,-49.499,-0.365,0.022,2.473
9.776,-49.501,-0.615,0.025,2.472
9.784,-49.503,-0.603,0.206,2.471
9.799,-49.504,-0.732,0.099,2.471
9.818,-49.509,-1.047,0.124,2.473
9.827,-49.514,-1.482,0.164,2.475
9.834,-49.547,-1.154,0.302,2.474
9.844,-49.573,-0.578,0.357,2.472
9.869,-49.608,-0.14,0.081,2.474
9.906,-49.63,-0.413,0.033,2.47
9.955,-49.644,-0.634,0.332,2.473
9.968,-49.637,-0.906,0.028,2.471
9.986,-49.636,-1.296,0.423,2.473
9.985,-49.631,-1.546,0.249,2.472
9.986,-49.638,-1.54,0.424,2.474
9.983,-49.657,-1.395,0.342,2.472
9.98,-49.673,-1.182,0.485,2.471
9.977,-49.683,-1.033,0.206,2.473
9.991,-49.691,-1.162,0.124,2.472
9.984,-49.683,-1.091,0.373,2.47
9.985,-49.675,-1.299,0.367,2.472
9.991,-49.667,-2.038,0.314,2.473
9.989,-49.671,-2.521,0.81,2.471
9.976,-49.676,-2.427,0.854,2.473
9.989,-49.684,-2.483,0.535,2.473
9.989,-49.69,-2.442,0.79,2.473
9.99,-49.69,-2.162,0.714,2.473
9.994,-49.692,-2.061,0.674,2.472
10.004,-49.694,-2.061,0.7,2.473
10.009,-49.693,-2.083,0.576,2.473
10.006,-49.691,-2.067,0.634,2.471
9.996,-49.688,-1.962,0.648,2.471
9.991,-49.686,-2.087,0.452,2.469
9.99,-49.686,-2.293,0.522,2.474
9.993,-49.677,-2.663,0.291,2.473
9.986,-49.681,-2.136,0.826,2.472
9.988,-49.675,-1.668,0.452,2.472
10.008,-49.683,-1.956,0.504,2.474
9.999,-49.681,-2.08,0.558,2.472
9.996,-49.677,-1.936,0.714,2.473
9.999,-49.678,-2.173,0.814,2.473
9.997,-49.678,-2.153,0.782,2.475
10,-49.672,-2.101,0.678,2.472
10.002,-49.674,-1.961,0.906,2.472
10.016,-49.676,-2.12,0.558,2.472
10.014,-49.678,-2.272,0.554,2.472
10.012,-49.676,-2.268,0.633,2.472
10.013,-49.676,-2.245,0.629,2.474
10.017,-49.677,-2.194,0.65,2.473
10.022,-49.679,-1.969,0.758,2.471
10.036,-49.676,-1.874,0.657,2.474
10.05,-49.665,-2.276,0.537,2.471
10.06,-49.652,-2.065,0.862,2.473
10.08,-49.629,-2.252,0.461,2.474
10.088,-49.621,-2.41,0.796,2.474
10.091,-49.618,-2.211,0.816,2.471
10.101,-49.618,-2.11,0.851,2.473
10.115,-49.608,-2.68,0.676,2.473
10.121,-49.599,-2.813,0.886,2.474
10.122,-49.595,-2.357,0.834,2.472
10.137,-49.605,-2.136,0.81,2.473
10.14,-49.604,-2.332,0.599,2.474
10.141,-49.605,-2.497,0.88,2.472
10.135,-49.603,-2.312,0.918,2.472
10.143,-49.605,-2.374,0.716,2.472
10.139,-49.6,-2.677,0.681,2.472
10.138,-49.597,-2.649,0.727,2.472
10.137,-49.601,-2.55,0.765,2.473
10.138,-49.605,-2.552,0.662,2.473
10.141,-49.603,-2.401,0.858,2.472
10.147,-49.603,-2.465,0.762,2.473
10.152,-49.603,-2.553,0.735,2.473
10.151,-49.602,-2.449,0.79,2.472
10.151,-49.602,-2.43,0.836,2.473
10.148,-49.6,-2.618,0.729,2.473
10.144,-49.595,-2.512,0.837,2.472
10.146,-49.597,-2.517,0.852,2.472
10.149,-49.592,-2.722,0.751,2.473
10.149,-49.593,-2.653,0.881,2.473
10.15,-49.594,-2.534,0.843,2.474
10.152,-49.594,-2.572,0.815,2.475
10.152,-49.594,-2.468,0.931,2.472
10.152,-49.594,-2.203,0.952,2.472
10.16,-49.59,-2.346,0.587,2.472
10.157,-49.591,-2.547,0.725,2.472
10.16,-49.592,-2.547,0.704,2.475
10.16,-49.592,-2.559,0.695,2.472
10.16,-49.594,-1.706,0.873,2.473
10.179,-49.59,-2.125,0.682,2.472
10.174,-49.59,-2.302,0.838,2.473
10.17,-49.588,-2.298,0.638,2.473
10.169,-49.591,-2.25,0.772,2.471
10.168,-49.59,-2.165,0.713,2.471
10.172,-49.587,-2.682,0.613,2.473
10.169,-49.581,-2.714,0.627,2.473
10.164,-49.586,-2.367,0.719,2.472
10.165,-49.582,-2.342,0.761,2.472
10.17,-49.571,-2.544,0.697,2.472
10.172,-49.562,-2.589,0.719,2.473
10.172,-49.559,-2.537,0.761,2.473
10.174,-49.557,-2.437,0.816,2.472
10.178,-49.548,-2.267,0.81,2.474
10.191,-49.527,-2.71,0.74,2.471
10.189,-49.518,-2.606,0.972,2.474
10.193,-49.508,-2.554,0.623,2.474
10.192,-49.511,-2.586,0.983,2.473
10.185,-49.507,-2.265,0.95,2.472
10.195,-49.505,-2.266,0.766,2.472
10.205,-49.502,-2.694,0.72,2.471
10.205,-49.499,-2.723,0.715,2.474
10.207,-49.497,-2.726,0.634,2.472
10.208,-49.496,-2.256,0.831,2.472
10.221,-49.493,-2.455,0.661,2.473
10.226,-49.489,-2.718,0.778,2.475
10.225,-49.484,-2.712,0,2.472
10.229,-49.481,-2.131,0.933,2.473
10.243,-49.478,-2.451,0.854,2.473
10.242,-49.475,-2.662,0.897,2.472
10.24,-49.469,-2.602,0.784,2.473
10.245,-49.471,-2.614,0.763,2.471
10.245,-49.472,-2.606,0.811,2.474
10.25,-49.468,-2.85,0.623,2.474
10.248,-49.469,-2.684,1.036,2.475
10.253,-49.461,-2.299,0.849,2.472
10.263,-49.461,-2.169,0.97,2.475
10.268,-49.462,-2.407,0.731,2.473
10.265,-49.465,-2.444,1.062,2.473
10.265,-49.462,-2.272,0.816,2.471
10.268,-49.465,-2.36,0.821,2.473
10.268,-49.465,-2.854,0.662,2.473
10.26,-49.466,-2.661,0.889,2.473
10.265,-49.465,-2.444,0.784,2.473
10.273,-49.469,-2.479,0.902,2.473
10.273,-49.469,-2.552,0.823,2.473
10.272,-49.47,-2.544,0.923,2.472
10.272,-49.469,-2.563,0.824,2.472
10.273,-49.468,-2.76,0.821,2.473
10.281,-49.46,-2.943,0.809,2.473
10.283,-49.462,-2.777,0.971,2.474
10.287,-49.468,-2.557,0.892,2.473
10.291,-49.469,-2.484,1.028,2.472
10.296,-49.464,-2.473,0.905,2.471
10.307,-49.456,-2.774,0.881,2.473
10.315,-49.446,-3.11,0.748,2.472
10.311,-49.445,-2.812,0.975,2.47
10.318,-49.444,-2.749,0.762,2.471
10.329,-49.442,-3.106,0.653,2.472
10.335,-49.431,-3.26,0.842,2.474
10.349,-49.435,-3.03,0.839,2.473
10.353,-49.437,-2.683,1.026,2.473
10.359,-49.435,-2.56,0.881,2.474
10.374,-49.434,-2.693,0.959,2.476
10.378,-49.43,-2.595,1.071,2.473
10.386,-49.423,-2.073,1.06,2.474
10.406,-49.411,-2.439,0.825,2.475
10.411,-49.397,-2.685,1.019,2.47
10.416,-49.391,-2.327,1.047,2.473
10.441,-49.384,-3.179,0.707,2.471
10.437,-49.375,-3.278,1.088,2.472
10.442,-49.366,-3.03,0.755,2.476
10.453,-49.368,-3.067,0.866,2.473
10.452,-49.366,-2.66,1.29,2.472
10.468,-49.354,-2.275,0.785,2.473
10.495,-49.343,-2.947,0.869,2.472
10.499,-49.333,-2.654,0.931,2.472
10.511,-49.329,-2.601,0.786,2.473
10.523,-49.323,-2.837,0.785,2.475
10.529,-49.311,-2.822,0.93,2.475
10.536,-49.305,-2.37,1.003,2.475
10.545,-49.3,-2.187,0.992,2.476
10.555,-49.297,-2.156,1.019,2.472
10.562,-49.294,-2.12,1.13,2.473
10.585,-49.279,-2.706,0.837,2.471
10.584,-49.269,-2.793,0.931,2.47
10.585,-49.264,-2.816,0.668,2.474
10.596,-49.258,-3.168,0.619,2.473
10.596,-49.252,-3.132,1.17,2.473
10.614,-49.241,-2.554,0.904,2.475
10.626,-49.237,-2.696,0.905,2.473
10.63,-49.233,-2.641,1.123,2.472
10.633,-49.229,-2.592,0.849,2.474
10.645,-49.227,-2.769,0.815,2.473
10.645,-49.218,-2.588,1,2.473
10.655,-49.215,-2.616,0.902,2.473
10.663,-49.212,-2.697,0.9,2.474
10.664,-49.21,-2.71,0.887,2.474
10.664,-49.211,-2.586,1.072,2.474
10.667,-49.211,-2.357,1.004,2.474
10.672,-49.209,-2.395,0.925,2.474
10.676,-49.206,-2.487,0.969,2.474
10.682,-49.198,-2.571,0.966,2.472
10.684,-49.198,-2.537,0.999,2.474
10.69,-49.196,-2.693,0.846,2.475
10.692,-49.193,-2.678,1.02,2.47
10.694,-49.191,-2.445,1.174,2.473
10.702,-49.182,-2.648,0.401,2.474
10.716,-49.182,-3.016,1.078,2.474
10.71,-49.173,-2.598,0.977,2.474
10.718,-49.175,-2.481,1.043,2.473
10.721,-49.173,-2.442,0.941,2.474
10.727,-49.172,-2.773,0.901,2.474
10.724,-49.171,-2.674,1.023,2.474
10.725,-49.168,-2.5,0.973,2.473
10.731,-49.169,-2.488,0.958,2.475
10.737,-49.164,-2.57,0.896,2.473
10.738,-49.162,-2.466,1.085,2.473
10.74,-49.162,-2.443,0.828,2.474
10.744,-49.161,-2.562,0.879,2.473
10.745,-49.155,-2.52,1.021,2.475
10.752,-49.153,-2.547,0.936,2.472
10.756,-49.149,-2.37,1.119,2.474
10.763,-49.141,-2.442,0.659,2.474
10.779,-49.134,-2.684,1.045,2.474
10.781,-49.125,-2.551,0.992,2.473
10.798,-49.116,-2.626,0.965,2.473
10.803,-49.109,-2.72,0.925,2.474
10.807,-49.105,-2.741,0.954,2.475
10.81,-49.1,-2.605,1.029,2.474
10.817,-49.092,-2.192,1.067,2.474
10.832,-49.086,-2.281,0.926,2.474
10.841,-49.077,-2.481,0.957,2.474
10.842,-49.07,-2.481,0.991,2.474
10.847,-49.064,-2.51,0.967,2.473
10.847,-49.06,-2.448,1.034,2.474
10.855,-49.056,-2.627,0.925,2.473
10.862,-49.05,-2.626,1.087,2.473
10.874,-49.047,-2.653,0.972,2.473
10.883,-49.041,-2.75,0.877,2.474
10.887,-49.038,-2.8,0.946,2.474
10.888,-49.036,-2.726,1.035,2.473
10.893,-49.035,-2.565,1.055,2.475
10.902,-49.032,-2.678,0.889,2.474
10.908,-49.028,-2.67,1.238,2.473
10.912,-49.025,-2.528,0.982,2.474
10.929,-49.02,-2.736,1.007,2.476
10.931,-49.016,-2.692,0.985,2.474
10.934,-49.015,-2.324,1.153,2.473
10.944,-49.013,-2.194,0.969,2.476
10.961,-49.003,-2.704,0.945,2.474
10.963,-48.996,-2.225,1.117,2.473
10.977,-48.995,-2.136,0.936,2.476
10.987,-48.99,-2.462,0.912,2.475
10.989,-48.983,-2.329,1.133,2.475
10.998,-48.982,-2.215,0.982,2.474
11.006,-48.981,-2.269,1.05,2.474
11.009,-48.977,-2.318,0.967,2.474
11.014,-48.972,-2.448,0.96,2.474
11.021,-48.966,-2.411,1.036,2.474
11.03,-48.964,-2.454,0.951,2.473
11.036,-48.96,-2.491,1.024,2.474
11.048,-48.952,-2.686,0.89,2.475
11.058,-48.94,-2.614,0.979,2.477
11.063,-48.939,-2.518,1.086,2.475
11.068,-48.933,-2.144,1.266,2.473
11.075,-48.924,-1.962,0.926,2.477
11.101,-48.915,-2.437,0.922,2.472
11.11,-48.901,-2.206,1.279,2.477
11.127,-48.895,-2.433,0.802,2.473
11.132,-48.889,-2.425,1.374,2.475
11.13,-48.882,-2.19,0.741,2.473
11.146,-48.886,-2.252,1.023,2.476
11.152,-48.874,-2.547,0.92,2.474
11.15,-48.874,-2.218,1.22,2.476
11.169,-48.872,-2.198,0.946,2.475
11.174,-48.864,-2.174,1.172,2.475
11.178,-48.861,-2.085,0.949,2.473
11.194,-48.857,-2.219,1.002,2.476
11.2,-48.85,-2.511,0.885,2.475
11.202,-48.848,-2.512,1.236,2.475
11.203,-48.842,-2.238,1.079,2.474
11.217,-48.844,-2.085,1.039,2.476
11.237,-48.837,-2.327,0.99,2.476
11.26,-48.828,-2.09,1.097,2.476
11.273,-48.827,-1.939,1.146,2.476
11.286,-48.824,-1.953,1.092,2.477
11.294,-48.818,-2.029,1.097,2.476
11.307,-48.812,-1.886,1.195,2.478
11.319,-48.811,-1.854,1.153,2.477
11.325,-48.809,-1.788,1.311,2.476
11.33,-48.806,-1.744,1.13,2.478
11.346,-48.801,-1.882,1.139,2.479
11.35,-48.797,-1.716,1.377,2.477
11.352,-48.793,-1.488,1.329,2.479
11.362,-48.791,-1.361,1.105,2.477
11.377,-48.79,-1.368,1.403,2.479
11.39,-48.781,-1.546,1.159,2.478
11.388,-48.779,-1.071,1.322,2.48
11.397,-48.779,-1.094,1.196,2.478
11.399,-48.777,-1.14,1.154,2.48
11.4,-48.775,-1.169,1.168,2.48
11.403,-48.776,-1.124,1.383,2.481
11.403,-48.773,-0.935,1.314,2.48
11.407,-48.77,-0.585,1.417,2.48
11.42,-48.768,-0.642,1.34,2.482
11.427,-48.765,-0.711,1.262,2.482
11.429,-48.764,-0.55,1.47,2.481
11.436,-48.761,-0.301,1.412,2.48
11.453,-48.756,-0.394,1.326,2.481
11.458,-48.754,-0.44,1.186,2.483
11.467,-48.75,-0.437,1.421,2.482
11.473,-48.746,-0.072,1.474,2.482
11.495,-48.741,0.124,1.379,2.482
11.501,-48.738,0.055,1.357,2.483
11.504,-48.736,0.082,1.377,2.481
11.505,-48.734,0.209,1.404,2.485
11.512,-48.729,0.005,1.276,2.487
11.515,-48.722,0.251,1.637,2.485
11.522,-48.716,1.361,1.538,2.483
11.546,-48.713,1.463,1.352,2.484
11.564,-48.694,0.781,1.325,2.485
11.564,-48.694,0.963,1.411,2.486
11.564,-48.694,1.135,1.355,2.485
11.565,-48.693,1.565,1.475,2.485
11.569,-48.692,1.514,1.301,2.487
11.581,-48.689,1.296,1.339,2.485
11.581,-48.685,1.79,1.516,2.486
11.591,-48.684,1.789,1.225,2.487
11.595,-48.681,1.66,1.449,2.486
11.599,-48.675,2.069,1.463,2.486
11.608,-48.673,1.929,1.349,2.487
11.609,-48.671,1.944,1.356,2.487
11.61,-48.669,2.07,1.494,2.489
11.614,-48.667,2.096,1.39,2.487
11.617,-48.664,2.269,1.669,2.488
11.63,-48.66,2.354,1.327,2.488
11.641,-48.647,2.476,1.454,2.487
11.646,-48.645,2.54,1.386,2.489
11.648,-48.639,2.338,1.296,2.488
11.647,-48.632,2.624,1.539,2.488
11.655,-48.628,2.829,1.297,2.489
11.668,-48.622,2.633,1.353,2.488
11.668,-48.617,2.712,1.54,2.488
11.672,-48.614,2.688,1.316,2.488
11.672,-48.61,2.658,1.404,2.489
11.674,-48.607,2.743,1.421,2.489
11.68,-48.603,2.849,1.419,2.489
11.683,-48.601,2.891,1.415,2.491
11.686,-48.598,2.976,1.47,2.488
11.691,-48.59,3.308,1.526,2.491
11.713,-48.566,2.851,1.348,2.49
11.714,-48.557,3.025,1.6,2.489
11.722,-48.547,3.516,1.425,2.491
11.743,-48.539,3.331,1.333,2.489
11.745,-48.532,3.624,1.454,2.492
11.755,-48.529,3.53,1.258,2.49
11.755,-48.526,3.63,1.692,2.491
11.771,-48.521,3.707,1.33,2.492
11.77,-48.518,3.619,1.478,2.492
11.769,-48.512,3.939,1.519,2.493
11.774,-48.511,4.175,1.656,2.491
11.781,-48.503,4.6,1.515,2.494
11.796,-48.498,4.262,1.35,2.493
11.796,-48.493,4.409,1.689,2.493
11.812,-48.488,4.765,1.392,2.494
11.818,-48.487,4.737,1.504,2.493
11.82,-48.481,4.802,1.49,2.492
11.825,-48.477,4.789,1.49,2.494
11.827,-48.474,4.695,1.336,2.492
11.829,-48.472,4.677,1.586,2.494
11.837,-48.468,4.599,1.303,2.492
11.843,-48.464,4.676,1.606,2.495
11.852,-48.458,4.838,1.274,2.493
11.86,-48.452,5.026,1.554,2.494
11.885,-48.444,4.826,1.36,2.493
11.893,-48.438,4.848,1.513,2.49
11.896,-48.436,4.927,1.323,2.491
11.906,-48.435,4.461,1.11,2.492
11.906,-48.422,4.123,1.29,2.491
11.906,-48.409,4.413,1.351,2.492
11.912,-48.407,4.396,1.221,2.491
11.912,-48.404,4.362,1.463,2.488
11.913,-48.401,4.419,1.315,2.49
11.914,-48.396,4.139,0.952,2.49
11.915,-48.386,3.804,1.276,2.489
11.917,-48.378,3.858,1.219,2.49
11.92,-48.375,3.756,1.126,2.487
11.923,-48.368,3.774,1.247,2.489
11.929,-48.362,3.606,0.98,2.489
11.939,-48.35,3.446,1.308,2.488
11.944,-48.342,3.58,1.238,2.488
11.952,-48.336,3.387,1.171,2.489
11.957,-48.328,3.352,1.182,2.489
11.959,-48.326,3.341,1.248,2.489
11.962,-48.322,3.339,1.226,2.487
11.971,-48.315,3.341,1.325,2.489
11.99,-48.297,2.76,1.242,2.489
12.005,-48.274,2.753,1.421,2.489
12.015,-48.272,2.92,1.431,2.488
12.025,-48.269,3.077,1.419,2.49
12.037,-48.263,2.744,1.302,2.489
12.04,-48.256,2.926,1.52,2.487
12.049,-48.256,3.083,1.324,2.488
12.061,-48.251,2.762,1.205,2.483
12.062,-48.24,2.675,1.374,2.488
12.067,-48.235,2.428,0.728,2.484
12.078,-48.239,2.183,1.624,2.485
12.084,-48.226,1.971,1.043,2.483
12.086,-48.222,1.944,1.189,2.482
12.09,-48.222,1.861,0.957,2.485
12.095,-48.214,1.285,1.022,2.482
12.091,-48.205,1.363,1.328,2.482
12.1,-48.205,1.305,1.02,2.481
12.105,-48.199,1.028,1.058,2.483
12.108,-48.191,0.762,0.992,2.479
12.111,-48.186,0.851,1.172,2.48
12.119,-48.182,0.314,0.888,2.476
12.12,-48.168,-0.17,1.081,2.479
12.125,-48.157,-0.559,0.698,2.479
12.131,-48.148,-0.645,1.118,2.477
12.14,-48.147,-0.546,1.054,2.477
12.143,-48.147,-0.629,0.831,2.477
12.151,-48.138,-1.012,1.025,2.479
12.157,-48.129,-1.243,1.016,2.474
12.16,-48.126,-1.237,1.321,2.477
12.173,-48.118,-1.764,1.204,2.477
12.179,-48.107,-2.103,1.264,2.476
12.182,-48.099,-1.943,1.228,2.475
12.19,-48.099,-1.943,1.074,2.476
12.205,-48.091,-2.178,1.067,2.474
12.208,-48.084,-2.191,1.212,2.478
12.212,-48.084,-2.315,0.921,2.475
12.219,-48.078,-1.954,1.316,2.475
12.226,-48.078,-1.965,0.944,2.476
12.237,-48.076,-2.456,1.101,2.476
12.237,-48.064,-2.553,1.256,2.476
12.241,-48.063,-2.438,1.251,2.473
12.249,-48.064,-2.423,1.237,2.474
12.251,-48.06,-2.628,0.935,2.475
12.253,-48.056,-2.952,1.166,2.473
12.255,-48.053,-2.919,1.275,2.476
12.261,-48.049,-2.953,0.962,2.476
12.283,-48.04,-2.369,1.28,2.474
12.298,-48.04,-2.358,1.226,2.475
12.313,-48.032,-2.874,1.167,2.475
12.32,-48.022,-3.038,1.338,2.474
12.326,-48.02,-2.918,1.285,2.473
12.337,-48.016,-3.008,1.173,2.474
12.341,-48.009,-3.148,1.102,2.473
12.346,-48.002,-3.2,1.265,2.474
12.355,-47.996,-3.237,1.061,2.472
12.369,-47.987,-3.158,1.264,2.474
12.38,-47.983,-3.402,1.081,2.478
12.388,-47.973,-3.456,1.374,2.473
12.398,-47.96,-2.735,1.579,2.474
12.432,-47.954,-3.344,1.25,2.475
12.433,-47.942,-3.499,1.491,2.475
12.436,-47.94,-3.185,1.345,2.475
12.449,-47.94,-3.053,1.309,2.474
12.45,-47.937,-3.111,1.333,2.475
12.453,-47.936,-3.178,1.22,2.473
12.46,-47.932,-3.138,1.324,2.474
12.471,-47.927,-3.319,1.167,2.474
12.48,-47.92,-3.308,1.205,2.474
12.484,-47.918,-3.25,1.287,2.473
12.49,-47.917,-3.27,1.238,2.476
12.495,-47.913,-3.328,1.174,2.473
12.504,-47.905,-2.909,1.382,2.474
12.517,-47.902,-3.273,1.146,2.474
12.524,-47.892,-3.468,1.404,2.473
12.535,-47.884,-3.366,1.263,2.474
12.548,-47.882,-3.419,1.184,2.476
12.553,-47.877,-3.379,1.344,2.475
12.56,-47.871,-3.086,1.395,2.477
12.568,-47.869,-3.048,1.3,2.472
12.589,-47.85,-2.836,1.505,2.475
12.6,-47.841,-3.036,0.903,2.472
12.622,-47.823,-3.308,1.451,2.473
12.64,-47.818,-3.612,1.129,2.474
12.645,-47.802,-3.617,1.271,2.473
12.648,-47.802,-3.465,1.352,2.473
12.653,-47.798,-3.482,1.17,2.474
12.659,-47.79,-3.691,1.278,2.476
12.663,-47.784,-3.63,1.415,2.475
12.674,-47.778,-3.238,1.478,2.475
12.688,-47.776,-3.171,1.319,2.475
12.699,-47.772,-3.357,1.391,2.476
12.703,-47.768,-3.364,1.396,2.473
12.708,-47.766,-3.297,1.538,2.474
12.715,-47.762,-3.389,1.115,2.474
12.722,-47.755,-3.588,1.417,2.474
12.73,-47.757,-3.58,1.323,2.473
12.736,-47.754,-3.542,1.348,2.475
12.743,-47.753,-3.626,1.183,2.474
12.746,-47.75,-3.649,1.379,2.472
12.748,-47.747,-3.565,1.343,2.474
12.753,-47.745,-3.774,1.137,2.475
12.758,-47.734,-3.803,1.414,2.474
12.766,-47.726,-3.439,1.283,2.473
12.779,-47.724,-3.458,1.335,2.475
12.783,-47.721,-3.57,1.139,2.475
12.79,-47.71,-3.674,1.575,2.473
12.809,-47.697,-3.431,1.461,2.474
12.826,-47.683,-3.621,1.183,2.474
12.83,-47.677,-3.764,1.39,2.474
12.835,-47.661,-3.791,1.433,2.473
12.844,-47.651,-3.731,1.381,2.475
12.851,-47.649,-3.793,1.233,2.474
12.86,-47.644,-3.738,1.571,2.475
12.868,-47.641,-3.651,1.364,2.475
12.876,-47.639,-3.609,1.468,2.472
12.888,-47.635,-3.551,1.438,2.477
12.903,-47.63,-3.823,1.11,2.473
12.918,-47.619,-3.831,1.819,2.475
12.951,-47.604,-3.766,1.285,2.474
12.979,-47.588,-3.759,1.52,2.474
12.996,-47.583,-3.715,1.381,2.471
13.017,-47.577,-3.862,1.381,2.476
13.022,-47.573,-3.955,1.056,2.471
13.033,-47.558,-3.559,1.653,2.475
13.044,-47.559,-3.689,0.886,2.475
13.049,-47.555,-4.067,1.746,2.475
13.047,-47.543,-3.836,1.501,2.473
13.051,-47.546,-3.732,1.58,2.473
13.054,-47.545,-3.849,1.342,2.475
13.054,-47.538,-4.13,1.411,2.472
13.054,-47.534,-4.061,1.624,2.475
13.057,-47.533,-4.04,1.163,2.475
13.062,-47.532,-4.054,1.671,2.472
13.073,-47.524,-3.751,1.507,2.474
13.086,-47.524,-3.972,1.235,2.473
13.097,-47.513,-4.214,1.582,2.472
13.109,-47.506,-4.153,1.396,2.475
13.125,-47.504,-4.357,1.299,2.476
13.138,-47.496,-4.313,1.762,2.471
13.151,-47.485,-3.888,1.726,2.476
13.17,-47.482,-3.941,1.081,2.474
13.186,-47.48,-4.204,1.926,2.472
13.198,-47.464,-4.124,1.458,2.475
13.212,-47.461,-4.464,1.345,2.474
13.219,-47.452,-4.374,1.717,2.472
13.224,-47.448,-4.106,1.487,2.474
13.234,-47.45,-4.246,1.306,2.474
13.237,-47.44,-4.398,1.634,2.473
13.244,-47.435,-4.203,1.63,2.475
13.249,-47.435,-4.252,1.406,2.472
13.252,-47.432,-4.228,1.764,2.473
13.255,-47.432,-4.374,1.409,2.474
13.255,-47.425,-4.414,1.531,2.473
13.258,-47.423,-4.251,1.6,2.472
13.266,-47.424,-4.393,1.434,2.473
13.267,-47.419,-4.498,1.4,2.474
13.268,-47.417,-4.52,1.455,2.475
13.27,-47.416,-4.373,1.576,2.473
13.273,-47.415,-4.154,1.646,2.474
13.277,-47.416,-4.234,1.385,2.474
13.279,-47.412,-4.287,1.626,2.473
13.28,-47.411,-4.183,1.619,2.474
13.279,-47.412,-4.475,1.464,2.472
13.276,-47.407,-4.497,1.64,2.474
13.277,-47.406,-4.5,1.375,2.474
13.278,-47.405,-4.417,1.556,2.473
13.279,-47.405,-4.393,1.564,2.473
13.281,-47.406,-4.472,1.431,2.473
13.28,-47.403,-4.521,1.478,2.475
13.28,-47.402,-4.49,1.532,2.473
13.28,-47.403,-4.142,1.679,2.473
13.28,-47.406,-4.288,1.457,2.474
13.279,-47.405,-4.664,1.511,2.473
13.278,-47.405,-4.271,1.62,2.472
13.279,-47.409,-4.253,1.488,2.473
13.279,-47.407,-4.507,1.435,2.471
13.277,-47.403,-4.584,1.578,2.471
